timestamps,TP9,Fp1,Fp2,TP10,Marker
1685051969.6206865,-1000.0,-1000.0,-406.73828125,528.3203125,0
1685051969.6244032,-226.07421875,-421.875,-233.88671875,-845.21484375,0
1685051969.62812,-823.73046875,-979.4921875,-78.125,-1000.0,0
1685051969.6318364,357.421875,602.5390625,-136.71875,-355.95703125,0
1685051969.635553,-958.0078125,-749.0234375,-275.390625,-968.26171875,0
1685051969.6392696,-1000.0,-1000.0,-278.80859375,785.64453125,0
1685051969.6429863,-252.44140625,-538.57421875,-197.75390625,-579.1015625,0
1685051969.6467028,-852.05078125,871.09375,-85.44921875,-1000.0,0
1685051969.6504192,522.94921875,791.9921875,-15.625,-422.8515625,0
1685051969.654136,-870.1171875,-573.2421875,-40.52734375,939.453125,0
1685051969.6578526,-1000.0,-1000.0,-311.5234375,965.8203125,0
1685051969.661569,-221.19140625,-667.96875,-360.3515625,-336.42578125,0
1685051969.6652598,-917.48046875,669.921875,-80.078125,-1000.0,0
1685051969.6689506,781.25,975.09765625,-16.6015625,-666.015625,0
1685051969.6726413,-568.84765625,-341.30859375,-243.1640625,659.1796875,0
1685051969.676332,-1000.0,-1000.0,-396.484375,-856.93359375,0
1685051969.6800227,-261.71875,-814.453125,-281.73828125,-52.24609375,0
1685051969.6837134,995.1171875,437.98828125,-29.296875,-1000.0,0
1685051969.6874044,989.2578125,-896.97265625,19.04296875,-850.5859375,0
1685051969.691095,-241.69921875,-141.11328125,-179.6875,422.8515625,0
1685051969.6947858,-1000.0,-1000.0,-190.91796875,-794.43359375,0
1685051969.6984766,-415.52734375,-924.31640625,-95.21484375,134.27734375,0
1685051969.7021673,895.99609375,230.95703125,-127.44140625,-1000.0,0
1685051969.705858,-911.62109375,-832.51953125,-65.91796875,-1000.0,0
1685051969.709606,-31.25,3.90625,-150.87890625,208.49609375,0
1685051969.7133539,-1000.0,-1000.0,-349.609375,-774.4140625,0
1685051969.7171018,-604.00390625,-1000.0,-392.08984375,128.90625,0
1685051969.7208498,748.53515625,36.1328125,-163.57421875,-1000.0,0
1685051969.7245977,-846.6796875,-808.59375,31.25,-1000.0,0
1685051969.7283454,137.6953125,113.28125,-79.58984375,-35.64453125,0
1685051969.7320933,-1000.0,-1000.0,-294.921875,-786.1328125,0
1685051969.7358413,-867.1875,-1000.0,-293.9453125,149.4140625,0
1685051969.7395892,458.49609375,-119.140625,-32.71484375,-1000.0,0
1685051969.7433372,-795.41015625,-811.03515625,40.52734375,-1000.0,0
1685051969.747085,149.90234375,224.12109375,-145.99609375,-222.16796875,0
1685051969.750833,-1000.0,-1000.0,-269.53125,-820.3125,0
1685051969.75458,-1000.0,-1000.0,-274.4140625,248.53515625,0
1685051969.758327,179.6875,-209.9609375,-232.421875,-1000.0,0
1685051969.762074,-769.04296875,-835.9375,-62.5,-1000.0,0
1685051969.765821,138.671875,343.75,-61.03515625,-257.8125,0
1685051969.769568,-1000.0,-937.01171875,-278.80859375,-838.8671875,0
1685051969.773315,-1000.0,-1000.0,-321.2890625,423.828125,0
1685051969.7770622,-36.1328125,-309.5703125,-176.7578125,-920.41015625,0
1685051969.7808092,-781.25,-898.92578125,86.9140625,-1000.0,0
1685051969.7845562,269.53125,510.25390625,95.21484375,-306.640625,0
1685051969.7883031,-979.00390625,-810.05859375,-300.29296875,-905.76171875,0
1685051969.7920501,-1000.0,-1000.0,-395.99609375,646.484375,0
1685051969.795797,-193.359375,-390.625,-174.31640625,-732.91015625,0
1685051969.7995398,-828.125,-987.79296875,-13.671875,-1000.0,0
1685051969.8032825,469.7265625,703.61328125,-96.6796875,-426.7578125,0
1685051969.807025,-893.06640625,-625.48828125,-255.37109375,983.88671875,0
1685051969.8107677,-1000.0,-1000.0,-279.78515625,831.54296875,0
1685051969.8145103,-232.421875,-515.13671875,-246.09375,-539.55078125,0
1685051969.818253,-893.06640625,858.3984375,-71.77734375,-1000.0,0
1685051969.8219957,694.82421875,885.25390625,39.55078125,-523.92578125,0
1685051969.8257384,-688.4765625,-430.17578125,-81.54296875,856.4453125,0
1685051969.8294811,-1000.0,-1000.0,-325.68359375,-977.05078125,0
1685051969.8332236,-198.2421875,-664.0625,-361.81640625,-289.0625,0
1685051969.8369663,-957.03125,650.390625,-90.33203125,-1000.0,0
1685051969.840709,913.57421875,-965.33203125,-21.484375,-785.15625,0
1685051969.8445704,-364.74609375,-222.65625,-240.72265625,501.953125,0
1685051969.848432,-1000.0,-1000.0,-378.90625,-821.2890625,0
1685051969.8522935,-273.92578125,-827.63671875,-221.6796875,-5.859375,0
1685051969.856155,970.21484375,412.59765625,-22.4609375,-1000.0,0
1685051969.8600166,-956.54296875,-866.69921875,-45.8984375,-949.21875,0
1685051969.863878,-112.3046875,-68.359375,-167.48046875,282.2265625,0
1685051969.8677394,-1000.0,-1000.0,-175.29296875,-785.15625,0
1685051969.871601,-437.98828125,-943.359375,-168.45703125,73.2421875,0
1685051969.8754625,881.34765625,194.82421875,-178.7109375,-1000.0,0
1685051969.879324,-895.01953125,-819.82421875,-53.7109375,-1000.0,0
1685051969.8831856,47.8515625,47.36328125,-133.7890625,46.38671875,0
1685051969.887047,-1000.0,-1000.0,-353.515625,-775.390625,0
1685051969.8918679,-662.109375,-1000.0,-416.015625,134.27734375,0
1685051969.896689,699.21875,-11.23046875,-204.1015625,-1000.0,0
1685051969.9015098,-833.984375,-806.640625,-24.90234375,-1000.0,0
1685051969.9063306,154.78515625,145.01953125,-154.78515625,-166.50390625,0
1685051969.9111516,-1000.0,-1000.0,-338.8671875,-808.10546875,0
1685051969.9159725,-937.5,-1000.0,-302.24609375,189.94140625,0
1685051969.9207933,357.421875,-162.109375,47.36328125,-1000.0,0
1685051969.9256144,-782.71484375,-816.89453125,134.27734375,-1000.0,0
1685051969.9304352,143.06640625,255.37109375,-139.6484375,-240.234375,0
1685051969.935256,-1000.0,-989.2578125,-306.640625,-826.171875,0
1685051969.940077,-1000.0,-1000.0,-332.51953125,291.9921875,0
1685051969.944898,86.42578125,-254.39453125,-221.19140625,-986.81640625,0
1685051969.9486892,-768.5546875,-853.515625,-93.26171875,-1000.0,0
1685051969.9524803,138.671875,375.48828125,-89.84375,-256.8359375,0
1685051969.9562716,-1000.0,-917.48046875,-282.71484375,-844.23828125,0
1685051969.960063,-1000.0,-1000.0,-417.96875,449.70703125,0
1685051969.963854,-118.1640625,-351.5625,-281.73828125,-926.26953125,0
1685051969.9676454,-794.921875,-922.36328125,-11.23046875,-1000.0,0
1685051969.9714367,303.7109375,541.50390625,26.85546875,-246.58203125,0
1685051969.9752278,-967.7734375,-791.015625,-227.5390625,-936.5234375,0
1685051969.9790192,-1000.0,-1000.0,-416.015625,678.22265625,0
1685051969.9828105,-255.37109375,-497.55859375,-146.97265625,-701.66015625,0
1685051969.9866016,-846.19140625,924.8046875,124.0234375,-1000.0,0
1685051969.990393,485.3515625,734.86328125,-61.03515625,-511.71875,0
1685051969.9941573,-894.53125,-627.44140625,-262.20703125,904.78515625,0
1685051969.9979217,-1000.0,-1000.0,-356.4453125,903.80859375,0
1685051970.001686,-233.88671875,-630.37109375,-312.01171875,-465.33203125,0
1685051970.0054507,-886.23046875,741.2109375,-138.18359375,-1000.0,0
1685051970.009215,667.48046875,902.34375,-44.43359375,-591.796875,0
1685051970.0129795,-716.30859375,-452.1484375,-148.92578125,774.4140625,0
1685051970.016744,-1000.0,-1000.0,-327.1484375,-920.41015625,0
1685051970.0205083,-244.140625,-780.2734375,-349.609375,-190.91796875,0
1685051970.024273,-968.75,501.953125,-80.078125,-1000.0,0
1685051970.0280373,903.80859375,-945.3125,220.703125,-711.42578125,0
1685051970.0318017,-381.34765625,-234.375,-56.640625,583.0078125,0
1685051970.035566,-1000.0,-1000.0,-412.109375,-830.078125,0
1685051970.0406342,-408.69140625,-919.43359375,-300.29296875,21.97265625,0
1685051970.045702,910.15625,250.0,-103.02734375,-1000.0,0
1685051970.05077,-935.546875,-853.515625,-78.125,-1000.0,0
1685051970.055838,-129.8828125,-62.5,-227.5390625,153.80859375,0
1685051970.060906,-1000.0,-1000.0,-372.55859375,-776.85546875,0
1685051970.065974,-565.4296875,-1000.0,-285.64453125,124.0234375,0
1685051970.071042,786.1328125,58.59375,-85.9375,-1000.0,0
1685051970.07611,-865.234375,-816.40625,-54.19921875,-1000.0,0
1685051970.081178,36.1328125,54.6875,-26.85546875,-7.32421875,0
1685051970.086246,-1000.0,-1000.0,-170.41015625,-782.2265625,0
1685051970.0913138,-795.41015625,-1000.0,-365.72265625,144.53125,0
1685051970.096382,531.73828125,-88.8671875,-146.484375,-1000.0,0
1685051970.098834,-804.19921875,-808.59375,63.4765625,-1000.0,0
1685051970.1012862,153.80859375,168.9453125,-95.703125,-193.359375,0
1685051970.1037383,-1000.0,-1000.0,-372.0703125,-813.96484375,0
1685051970.1061902,-1000.0,-1000.0,-369.62890625,227.05078125,0
1685051970.1086423,221.6796875,-199.70703125,-163.0859375,-1000.0,0
1685051970.1110945,-770.5078125,-824.70703125,23.4375,-1000.0,0
1685051970.1135466,140.13671875,283.203125,-55.6640625,-239.2578125,0
1685051970.1159987,-1000.0,-977.05078125,-267.08984375,-828.61328125,0
1685051970.1184506,-1000.0,-1000.0,-278.3203125,340.33203125,0
1685051970.1209028,17.08984375,-283.203125,-213.8671875,-963.8671875,0
1685051970.123355,-774.90234375,-870.1171875,-104.00390625,-1000.0,0
1685051970.125807,183.59375,418.45703125,-4.39453125,-267.578125,0
1685051970.1296515,-1000.0,-889.16015625,-102.05078125,-862.3046875,0
1685051970.1334958,-1000.0,-1000.0,-314.94140625,527.83203125,0
1685051970.1373403,-165.0390625,-376.46484375,-244.62890625,-838.8671875,0
1685051970.1411848,-811.03515625,-957.51953125,10.7421875,-1000.0,0
1685051970.145029,392.08984375,626.46484375,24.90234375,-386.71875,0
1685051970.1488736,-932.12890625,-709.47265625,-216.30859375,-973.6328125,0
1685051970.152718,-1000.0,-1000.0,-333.49609375,758.7890625,0
1685051970.1565623,-245.1171875,-500.48828125,-135.25390625,-622.55859375,0
1685051970.1604068,-869.140625,892.578125,74.70703125,-1000.0,0
1685051970.1642513,601.07421875,822.265625,-67.3828125,-576.66015625,0
1685051970.1680956,-794.43359375,-512.6953125,-242.67578125,833.0078125,0
1685051970.17194,-1000.0,-1000.0,-336.42578125,960.9375,0
1685051970.1755888,-213.37890625,-617.67578125,-297.8515625,-413.0859375,0
1685051970.1792374,-928.7109375,725.09765625,-150.390625,-1000.0,0
1685051970.1828861,820.80078125,976.5625,-54.6875,-721.19140625,0
1685051970.1865346,-516.11328125,-314.94140625,-157.71484375,641.11328125,0
1685051970.1901834,-1000.0,-1000.0,-321.2890625,-926.26953125,0
1685051970.193832,-221.6796875,-770.99609375,-264.16015625,-229.4921875,0
1685051970.1974807,996.09375,495.60546875,-42.48046875,-1000.0,0
1685051970.2011294,-984.375,-894.04296875,203.61328125,-830.56640625,0
1685051970.204778,-164.55078125,-111.81640625,-20.5078125,428.7109375,0
1685051970.2084267,-1000.0,-1000.0,-408.69140625,-810.546875,0
1685051970.2120752,-380.859375,-901.3671875,-327.63671875,6.34765625,0
1685051970.215724,911.1328125,275.87890625,-135.25390625,-1000.0,0
1685051970.2194748,-910.64453125,-828.125,-94.23828125,-1000.0,0
1685051970.2232256,22.94921875,26.3671875,-223.14453125,11.23046875,0
1685051970.2269762,-1000.0,-1000.0,-339.35546875,-782.71484375,0
1685051970.230727,-523.4375,-989.2578125,-342.28515625,124.51171875,0
1685051970.2344778,830.56640625,99.609375,-195.3125,-1000.0,0
1685051970.2382283,-865.72265625,-807.6171875,-18.06640625,-1000.0,0
1685051970.2419791,173.33984375,133.7890625,19.04296875,-61.03515625,0
1685051970.24573,-1000.0,-1000.0,-133.7890625,-788.0859375,0
1685051970.2494807,-780.2734375,-1000.0,-377.44140625,149.4140625,0
1685051970.2532315,586.9140625,-55.17578125,-220.21484375,-1000.0,0
1685051970.256982,-816.40625,-810.05859375,11.71875,-1000.0,0
1685051970.260733,165.0390625,272.4609375,-130.37109375,-198.2421875,0
1685051970.2656631,-1000.0,-983.3984375,-381.34765625,-816.89453125,0
1685051970.2705936,-935.546875,-1000.0,-372.55859375,334.9609375,0
1685051970.275524,357.91015625,-144.04296875,-173.828125,-966.30859375,0
1685051970.2804542,-783.69140625,-836.42578125,-41.015625,-1000.0,0
1685051970.2853847,196.2890625,412.109375,-138.18359375,-208.0078125,0
1685051970.290315,-1000.0,-882.32421875,-246.58203125,-861.328125,0
1685051970.2952452,-1000.0,-1000.0,-171.875,601.5625,0
1685051970.3001757,133.30078125,-206.0546875,-158.69140625,-773.4375,0
1685051970.305106,-774.4140625,-884.765625,-47.36328125,-1000.0,0
1685051970.3100362,373.046875,586.42578125,25.87890625,-195.80078125,0
1685051970.3149667,-927.734375,-710.9375,-205.56640625,-944.82421875,0
1685051970.319897,-1000.0,-1000.0,-393.5546875,884.27734375,0
1685051970.323726,-69.82421875,-304.6875,-287.109375,-416.9921875,0
1685051970.3275547,-861.328125,-981.93359375,13.18359375,-1000.0,0
1685051970.3313837,707.51953125,837.40234375,46.38671875,-160.15625,0
1685051970.3352127,-701.171875,-463.37890625,-274.90234375,-966.796875,0
1685051970.3390415,-1000.0,-1000.0,-372.0703125,949.70703125,0
1685051970.3428705,78.61328125,-184.5703125,-140.13671875,-176.26953125,0
1685051970.3466995,-959.9609375,936.03515625,26.3671875,-1000.0,0
1685051970.3505282,927.734375,956.54296875,-41.9921875,-281.25,0
1685051970.3543572,-314.453125,-209.47265625,-228.515625,999.0234375,0
1685051970.3581862,-1000.0,-1000.0,-243.65234375,-991.69921875,0
1685051970.362015,-177.734375,-507.32421875,-126.953125,-193.359375,0
1685051970.365844,-992.67578125,807.6171875,-36.1328125,-1000.0,0
1685051970.3695753,-961.9140625,-941.40625,-17.08984375,-852.05078125,0
1685051970.3733065,-122.55859375,-86.42578125,-105.95703125,479.98046875,0
1685051970.3770378,-1000.0,-1000.0,-306.640625,-880.37109375,0
1685051970.380769,-175.78125,-697.265625,-375.0,-286.1328125,0
1685051970.3845003,999.51171875,584.47265625,-143.06640625,-1000.0,0
1685051970.3882315,-942.3828125,-868.1640625,23.4375,-1000.0,0
1685051970.3919628,18.06640625,-5.859375,-131.8359375,-52.734375,0
1685051970.395694,-1000.0,-1000.0,-404.296875,-826.66015625,0
1685051970.3994253,-325.1953125,-884.765625,-331.0546875,-125.0,0
1685051970.4031565,940.4296875,301.7578125,-11.71875,-1000.0,0
1685051970.4068878,-910.15625,-818.359375,-49.31640625,-1000.0,0
1685051970.410619,144.04296875,77.63671875,-280.2734375,-217.7734375,0
1685051970.4143684,-1000.0,-1000.0,-358.3984375,-816.89453125,0
1685051970.4181178,-562.5,-1000.0,-312.98828125,120.60546875,0
1685051970.4218674,814.453125,57.12890625,-226.07421875,-1000.0,0
1685051970.4256167,-859.86328125,-807.12890625,-157.71484375,-1000.0,0
1685051970.429366,183.10546875,155.76171875,-122.0703125,-192.87109375,0
1685051970.4331155,-1000.0,-1000.0,-228.02734375,-812.98828125,0
1685051970.4368649,-855.95703125,-1000.0,-371.09375,170.41015625,0
1685051970.4406142,485.83984375,-114.74609375,-289.55078125,-1000.0,0
1685051970.4443636,-799.31640625,-812.5,6.34765625,-1000.0,0
1685051970.4481132,149.4140625,254.39453125,-10.7421875,-242.67578125,0
1685051970.4518626,-1000.0,-988.28125,-385.25390625,-826.171875,0
1685051970.455612,-1000.0,-1000.0,-429.19921875,303.7109375,0
1685051970.4593441,169.921875,-223.6328125,-248.046875,-980.46875,0
1685051970.4630766,-769.04296875,-848.6328125,-114.74609375,-1000.0,0
1685051970.4668088,173.33984375,395.99609375,-182.6171875,-263.671875,0
1685051970.470541,-1000.0,-897.94921875,-306.15234375,-844.7265625,0
1685051970.4742732,-1000.0,-1000.0,-290.52734375,434.5703125,0
1685051970.4780054,-20.01953125,-305.6640625,-167.48046875,-913.0859375,0
1685051970.4817379,-784.66796875,-915.52734375,-50.29296875,-1000.0,0
1685051970.48547,375.9765625,586.9140625,-44.921875,-355.46875,0
1685051970.4892023,-932.12890625,-730.46875,-115.234375,-909.1796875,0
1685051970.4929347,-1000.0,-1000.0,-332.51953125,569.3359375,0
1685051970.496667,-143.5546875,-374.0234375,-324.21875,-821.77734375,0
1685051970.500399,-850.5859375,994.62890625,-60.546875,-1000.0,0
1685051970.504188,619.140625,794.921875,-44.43359375,-636.23046875,0
1685051970.507977,-756.34765625,-497.55859375,-280.2734375,848.14453125,0
1685051970.511766,-1000.0,-1000.0,-387.20703125,794.43359375,0
1685051970.5155547,-190.91796875,-458.49609375,-270.99609375,-674.8046875,0
1685051970.5193436,-959.9609375,873.53515625,-64.94140625,-1000.0,0
1685051970.5231326,928.7109375,970.21484375,22.94921875,-841.30859375,0
1685051970.5269215,-349.12109375,-239.2578125,-151.85546875,472.16796875,0
1685051970.5307105,-1000.0,-1000.0,-166.50390625,-881.34765625,0
1685051970.5344992,-169.921875,-560.546875,-32.71484375,-261.23046875,0
1685051970.538288,993.65234375,738.28125,-66.40625,-1000.0,0
1685051970.542077,-940.4296875,-909.66796875,-33.203125,-1000.0,0
1685051970.545866,-23.4375,-29.78515625,-153.3203125,168.9453125,0
1685051970.5495915,-1000.0,-1000.0,-350.09765625,-846.19140625,0
1685051970.553317,-172.8515625,-657.2265625,-328.125,-242.1875,0
1685051970.5570428,985.83984375,615.72265625,-91.30859375,-1000.0,0
1685051970.5607684,-914.55078125,-846.19140625,26.3671875,-1000.0,0
1685051970.564494,212.40234375,131.34765625,-154.296875,-103.515625,0
1685051970.5682197,-1000.0,-1000.0,-291.015625,-795.8984375,0
1685051970.5719452,-217.7734375,-790.0390625,-216.30859375,79.1015625,0
1685051970.5756707,996.58203125,456.54296875,74.21875,-1000.0,0
1685051970.5793962,-924.31640625,-823.73046875,101.07421875,-1000.0,0
1685051970.5831218,230.95703125,233.88671875,-183.10546875,-196.2890625,0
1685051970.5868475,-1000.0,-1000.0,-274.4140625,-814.453125,0
1685051970.590573,-392.08984375,-943.84765625,-232.421875,143.06640625,0
1685051970.594337,929.19921875,236.81640625,-182.12890625,-1000.0,0
1685051970.5981011,-899.90234375,-813.96484375,-78.125,-1000.0,0
1685051970.601865,206.54296875,280.76171875,-138.671875,-243.65234375,0
1685051970.605629,-1000.0,-969.23828125,-346.19140625,-825.1953125,0
1685051970.6093931,-757.8125,-1000.0,-416.50390625,165.52734375,0
1685051970.613157,618.1640625,-74.21875,-234.375,-1000.0,0
1685051970.616921,-814.94140625,-815.4296875,69.82421875,-1000.0,0
1685051970.620685,140.13671875,288.57421875,16.11328125,-320.3125,0
1685051970.624449,-1000.0,-956.54296875,-385.7421875,-851.5625,0
1685051970.628213,-1000.0,-1000.0,-447.75390625,225.5859375,0
1685051970.631977,21.97265625,-320.80078125,-245.60546875,-1000.0,0
1685051970.635741,-774.4140625,-871.58203125,-124.0234375,-1000.0,0
1685051970.6406803,135.7421875,315.4296875,-225.09765625,-478.02734375,0
1685051970.6456199,-1000.0,-977.05078125,-401.3671875,-928.7109375,0
1685051970.6505592,-1000.0,-1000.0,-425.29296875,345.703125,0
1685051970.6554987,-256.34765625,-616.69921875,-372.55859375,-989.2578125,0
1685051970.660438,-829.58984375,903.80859375,-254.39453125,-1000.0,0
1685051970.6653776,159.66796875,372.0703125,-173.33984375,-696.77734375,0
1685051970.670317,-1000.0,-1000.0,-259.765625,887.20703125,0
1685051970.6752563,-1000.0,-1000.0,-480.46875,466.796875,0
1685051970.6801958,-489.2578125,-970.703125,-498.53515625,-1000.0,0
1685051970.6851351,-925.29296875,440.91796875,-256.8359375,-969.23828125,0
1685051970.6900747,199.70703125,427.734375,-235.83984375,-1000.0,0
1685051970.695014,-1000.0,-1000.0,-486.328125,99.12109375,0
1685051970.6986952,-1000.0,-956.54296875,-600.5859375,507.8125,0
1685051970.7023764,-952.63671875,-1000.0,-409.66796875,-969.7265625,0
1685051970.7060578,589.35546875,59.08203125,-240.72265625,-972.16796875,0
1685051970.709739,301.7578125,455.078125,-327.63671875,-1000.0,0
1685051970.7134202,-1000.0,-1000.0,-506.34765625,-104.00390625,0
1685051970.7171016,-930.6640625,-960.44921875,-576.171875,548.33984375,0
1685051970.7207828,-1000.0,-1000.0,-500.0,-956.0546875,0
1685051970.724464,134.27734375,-128.41796875,-400.87890625,-985.3515625,0
1685051970.7281451,345.703125,479.4921875,-357.421875,-1000.0,0
1685051970.7318263,-1000.0,-960.44921875,-371.09375,-169.921875,0
1685051970.7355077,-930.6640625,-980.46875,-530.2734375,505.37109375,0
1685051970.739189,-1000.0,-1000.0,-646.97265625,-966.796875,0
1685051970.74435,-81.54296875,-282.2265625,-448.73046875,-991.69921875,0
1685051970.7495108,420.8984375,529.296875,-311.5234375,-1000.0,0
1685051970.7546716,-1000.0,-825.1953125,-428.7109375,-674.31640625,0
1685051970.7598326,-959.47265625,-1000.0,-614.2578125,272.4609375,0
1685051970.7649937,-1000.0,-1000.0,-623.53515625,-750.9765625,0
1685051970.7701545,-117.67578125,-445.3125,-278.3203125,-1000.0,0
1685051970.7753153,648.4375,698.2421875,-184.5703125,-983.88671875,0
1685051970.7804763,-886.23046875,-510.7421875,-475.09765625,-958.49609375,0
1685051970.7856374,-1000.0,-1000.0,-582.03125,485.3515625,0
1685051970.7907982,-1000.0,-1000.0,-513.671875,-71.77734375,0
1685051970.795959,-260.25390625,-491.2109375,-442.3828125,-1000.0,0
1685051970.80112,-878.90625,-985.3515625,-307.12890625,-1000.0,0
1685051970.8035936,-166.9921875,20.99609375,-334.47265625,-445.80078125,0
1685051970.8060675,-1000.0,-1000.0,-525.87890625,-898.92578125,0
1685051970.808541,-1000.0,-1000.0,-615.72265625,212.40234375,0
1685051970.8110147,-26.3671875,-240.234375,-402.34375,-1000.0,0
1685051970.8134885,-847.65625,-938.4765625,-130.37109375,-991.69921875,0
1685051970.815962,428.7109375,681.640625,-146.97265625,-54.19921875,0
1685051970.8184357,-1000.0,-700.1953125,-330.078125,-930.17578125,0
1685051970.8209095,-409.66796875,-895.99609375,-386.23046875,808.10546875,0
1685051970.823383,-968.26171875,556.15234375,-161.62109375,-624.0234375,0
1685051970.8258567,961.42578125,-946.2890625,22.94921875,-1000.0,0
1685051970.8283305,927.734375,913.57421875,-63.96484375,316.89453125,0
1685051970.830804,978.02734375,956.0546875,-236.81640625,-995.60546875,0
1685051970.8345332,966.796875,947.75390625,-83.0078125,-885.25390625,0
1685051970.838262,967.28515625,971.6796875,118.65234375,171.38671875,0
1685051970.841991,967.28515625,967.28515625,102.5390625,-434.08203125,0
1685051970.84572,967.28515625,967.7734375,92.28515625,955.56640625,0
1685051970.8494492,967.28515625,967.7734375,-59.08203125,-978.02734375,0
1685051970.853178,967.28515625,967.7734375,-112.79296875,915.0390625,0
1685051970.856907,967.28515625,967.7734375,0.0,979.98046875,0
1685051970.860636,967.28515625,967.7734375,100.5859375,967.7734375,0
1685051970.864365,966.796875,967.7734375,183.10546875,967.7734375,0
1685051970.868094,966.796875,967.7734375,-116.69921875,967.7734375,0
1685051970.8718228,967.28515625,967.7734375,-423.828125,967.7734375,0
1685051970.875552,967.28515625,968.26171875,-228.02734375,967.7734375,0
1685051970.8793063,966.796875,965.8203125,-104.4921875,967.7734375,0
1685051970.8830607,967.28515625,970.703125,-296.875,967.7734375,0
1685051970.886815,967.28515625,962.890625,-498.046875,967.7734375,0
1685051970.8905697,967.28515625,941.89453125,-554.6875,967.7734375,0
1685051970.894324,967.28515625,969.23828125,-465.33203125,967.7734375,0
1685051970.8980784,967.28515625,942.3828125,-277.34375,967.7734375,0
1685051970.9018328,967.28515625,996.58203125,-318.359375,967.7734375,0
1685051970.9055872,967.28515625,934.08203125,-404.296875,967.7734375,0
1685051970.9093418,967.28515625,147.4609375,-493.1640625,967.7734375,0
1685051970.9130962,973.6328125,464.35546875,-587.40234375,967.7734375,0
1685051970.9168506,925.29296875,-974.609375,-385.7421875,967.7734375,0
1685051970.920605,-981.93359375,976.5625,-320.3125,967.7734375,0
1685051970.9243698,940.4296875,833.984375,-553.7109375,967.7734375,0
1685051970.9281344,92.7734375,-657.71484375,-758.7890625,967.7734375,0
1685051970.931899,622.0703125,-340.8203125,-670.41015625,967.7734375,0
1685051970.935664,-945.80078125,-976.07421875,-468.26171875,967.7734375,0
1685051970.9394288,941.40625,-1000.0,-442.3828125,967.7734375,0
1685051970.9431934,958.984375,563.96484375,-554.6875,973.6328125,0
1685051970.946958,-629.8828125,-819.82421875,-633.30078125,941.89453125,0
1685051970.950723,-316.89453125,-737.79296875,-549.31640625,-967.7734375,0
1685051970.9544878,-961.9140625,658.203125,-508.7890625,770.5078125,0
1685051970.9582524,-967.28515625,-872.55859375,-514.6484375,609.86328125,0
1685051970.962017,696.77734375,477.05078125,-552.24609375,974.12109375,0
1685051970.965782,-923.828125,-837.40234375,-686.03515625,923.828125,0
1685051970.969643,-373.046875,-1000.0,-726.5625,-861.81640625,0
1685051970.9735045,997.0703125,172.8515625,-619.62890625,-128.90625,0
1685051970.9773657,-963.37890625,-837.40234375,-393.5546875,-532.2265625,0
1685051970.981227,674.31640625,461.9140625,-446.77734375,935.546875,0
1685051970.985088,-894.04296875,-810.05859375,-729.98046875,-957.03125,0
1685051970.9889493,-747.55859375,-1000.0,-752.9296875,820.80078125,0
1685051970.9928107,747.0703125,-144.53125,-440.91796875,-426.7578125,0
1685051970.996672,-886.23046875,-862.79296875,-267.578125,-1000.0,0
1685051971.000533,630.37109375,533.69140625,-527.34375,-228.02734375,0
1685051971.0043945,-765.625,-752.9296875,-714.84375,-849.609375,0
1685051971.0082557,-1000.0,-1000.0,-745.1171875,490.234375,0
1685051971.012117,249.51171875,-315.4296875,-645.99609375,-892.08984375,0
1685051971.0168912,-831.54296875,-930.6640625,-514.16015625,-1000.0,0
1685051971.0216656,654.296875,632.32421875,-497.0703125,-958.49609375,0
1685051971.02644,-670.41015625,-688.96484375,-604.98046875,515.13671875,0
1685051971.0312142,-1000.0,-1000.0,-760.25390625,390.625,0
1685051971.0359886,-71.2890625,-517.578125,-704.1015625,-1000.0,0
1685051971.040763,-894.04296875,886.23046875,-424.8046875,-919.43359375,0
1685051971.0455372,804.6875,794.43359375,-182.6171875,-1000.0,0
1685051971.0503116,-506.34765625,-569.82421875,-427.24609375,-308.10546875,0
1685051971.055086,-1000.0,-1000.0,-775.87890625,165.52734375,0
1685051971.0598602,-192.87109375,-758.30078125,-654.78515625,-1000.0,0
1685051971.0646346,-960.9375,574.21875,-446.2890625,-1000.0,0
1685051971.069409,936.5234375,953.61328125,-461.9140625,-1000.0,0
1685051971.0732431,-330.56640625,-429.19921875,-628.41796875,-922.36328125,0
1685051971.0770774,-1000.0,-1000.0,-695.80078125,-681.640625,0
1685051971.0809116,-230.46875,-934.5703125,-645.99609375,-967.28515625,0
1685051971.084746,996.09375,252.9296875,-508.7890625,-1000.0,0
1685051971.0885801,-980.46875,-937.5,-436.5234375,-981.93359375,0
1685051971.0924144,-150.87890625,-272.4609375,-416.50390625,-1000.0,0
1685051971.0962489,-1000.0,-1000.0,-502.44140625,-997.0703125,0
1685051971.100083,-471.19140625,-1000.0,-668.45703125,-1000.0,0
1685051971.1039174,870.1171875,-14.16015625,-533.203125,-1000.0,0
1685051971.1077516,-899.4140625,-860.3515625,-327.63671875,-1000.0,0
1685051971.1115859,-41.50390625,-92.7734375,-476.07421875,-1000.0,0
1685051971.11542,-1000.0,-1000.0,-754.8828125,-1000.0,0
1685051971.119183,-767.08984375,-1000.0,-737.3046875,-1000.0,0
1685051971.1229458,566.40625,-182.6171875,-502.44140625,-1000.0,0
1685051971.1267087,-812.5,-835.44921875,-400.87890625,-1000.0,0
1685051971.1304717,61.5234375,29.296875,-533.69140625,-1000.0,0
1685051971.1342347,-1000.0,-1000.0,-679.6875,-1000.0,0
1685051971.1379976,-1000.0,-1000.0,-634.27734375,-1000.0,0
1685051971.1417603,145.01953125,-322.75390625,-449.21875,-1000.0,0
1685051971.1455233,-765.625,-860.83984375,-378.41796875,-1000.0,0
1685051971.1492863,133.7890625,127.9296875,-457.51953125,-1000.0,0
1685051971.153049,-1000.0,-1000.0,-435.05859375,-1000.0,0
1685051971.156812,-1000.0,-1000.0,-569.82421875,-1000.0,0
1685051971.160575,-126.46484375,-481.4453125,-605.46875,-1000.0,0
1685051971.1655684,-798.33984375,-951.66015625,-385.25390625,-1000.0,0
1685051971.1705616,152.34375,231.93359375,-425.78125,-1000.0,0
1685051971.175555,-1000.0,-1000.0,-687.01171875,-1000.0,0
1685051971.1805482,-1000.0,-1000.0,-761.71875,-1000.0,0
1685051971.1855416,-256.34765625,-693.84765625,-570.80078125,-1000.0,0
1685051971.190535,-830.078125,837.890625,-346.19140625,-1000.0,0
1685051971.1955283,168.45703125,355.95703125,-404.78515625,-1000.0,0
1685051971.2005217,-1000.0,-1000.0,-670.8984375,-1000.0,0
1685051971.205515,-1000.0,-1000.0,-589.35546875,-1000.0,0
1685051971.2105083,-291.9921875,-896.484375,-410.64453125,-1000.0,0
1685051971.2155015,-839.84375,562.98828125,-428.7109375,-1000.0,0
1685051971.220495,224.12109375,476.5625,-405.2734375,-1000.0,0
1685051971.2230072,-1000.0,-1000.0,-517.578125,-1000.0,0
1685051971.2255194,-1000.0,-991.69921875,-685.546875,-1000.0,0
1685051971.2280316,-556.15234375,-1000.0,-668.45703125,-1000.0,0
1685051971.230544,-962.890625,236.328125,-434.08203125,-1000.0,0
1685051971.2330563,390.13671875,600.5859375,-355.95703125,-1000.0,0
1685051971.2355685,-998.046875,-916.015625,-514.6484375,-1000.0,0
1685051971.2380807,-1000.0,-991.2109375,-638.18359375,-1000.0,0
1685051971.240593,-874.51171875,-1000.0,-568.359375,-1000.0,0
1685051971.2431054,681.15234375,-13.671875,-365.234375,-1000.0,0
1685051971.2456176,610.83984375,742.1875,-368.65234375,-1000.0,0
1685051971.2481298,-964.84375,-756.8359375,-574.21875,-1000.0,0
1685051971.250642,-996.58203125,-1000.0,-626.953125,-1000.0,0
1685051971.2544112,-1000.0,-1000.0,-389.6484375,-1000.0,0
1685051971.2581806,243.1640625,-158.203125,-332.51953125,-1000.0,0
1685051971.2619498,800.29296875,872.55859375,-364.2578125,-1000.0,0
1685051971.265719,-831.54296875,-563.96484375,-421.875,-1000.0,0
1685051971.2694883,-1000.0,-1000.0,-614.2578125,-1000.0,0
1685051971.2732575,-1000.0,-1000.0,-602.05078125,-1000.0,0
1685051971.2770267,-48.828125,-302.734375,-426.7578125,-1000.0,0
1685051971.280796,957.03125,937.01171875,-196.77734375,-1000.0,0
1685051971.2845652,-575.68359375,-373.53515625,-255.37109375,-1000.0,0
1685051971.2883344,-1000.0,-1000.0,-634.765625,-1000.0,0
1685051971.2921038,-1000.0,-1000.0,-667.48046875,-1000.0,0
1685051971.295873,-234.375,-486.81640625,-450.68359375,-1000.0,0
1685051971.2997186,-929.19921875,922.36328125,-328.61328125,-1000.0,0
1685051971.3035643,-310.546875,-157.71484375,-402.83203125,-1000.0,0
1685051971.30741,-1000.0,-1000.0,-539.0625,-1000.0,0
1685051971.3112557,-1000.0,-1000.0,-561.03515625,-1000.0,0
1685051971.3151014,-261.71875,-724.609375,-452.63671875,-1000.0,0
1685051971.3189468,-876.46484375,739.74609375,-282.71484375,-1000.0,0
1685051971.3227925,-178.22265625,5.859375,-278.80859375,-1000.0,0
1685051971.3266382,-1000.0,-1000.0,-405.76171875,-1000.0,0
1685051971.330484,-1000.0,-986.328125,-571.2890625,-1000.0,0
1685051971.3343296,-513.18359375,-944.82421875,-552.734375,-1000.0,0
1685051971.3381753,-957.51953125,467.7734375,-290.0390625,-1000.0,0
1685051971.342021,-33.203125,123.046875,-278.3203125,-1000.0,0
1685051971.3456614,-1000.0,-1000.0,-533.69140625,-1000.0,0
1685051971.349302,-1000.0,-950.1953125,-649.4140625,-1000.0,0
1685051971.3529425,-833.49609375,-1000.0,-479.00390625,-1000.0,0
1685051971.3565829,757.32421875,183.10546875,-268.5546875,-1000.0,0
1685051971.3602235,136.71875,161.1328125,-252.44140625,-1000.0,0
1685051971.363864,-1000.0,-1000.0,-432.12890625,-1000.0,0
1685051971.3675044,-937.01171875,-938.4765625,-429.6875,-1000.0,0
1685051971.371145,-1000.0,-1000.0,-266.11328125,-1000.0,0
1685051971.3747854,312.98828125,-80.56640625,-290.52734375,-1000.0,0
1685051971.3784258,274.4140625,103.02734375,-308.59375,-1000.0,0
1685051971.3820665,-1000.0,-1000.0,-441.89453125,-1000.0,0
1685051971.385707,-927.24609375,-947.75390625,-609.86328125,-1000.0,0
1685051971.3906138,-1000.0,-1000.0,-567.3828125,-1000.0,0
1685051971.3955207,50.78125,-276.85546875,-342.7734375,-1000.0,0
1685051971.4004278,280.76171875,4.39453125,-240.234375,-1000.0,0
1685051971.4053347,-1000.0,-1000.0,-442.87109375,-1000.0,0
1685051971.4102416,-936.03515625,-960.9375,-615.72265625,-1000.0,0
1685051971.4151485,-1000.0,-1000.0,-477.05078125,-1000.0,0
1685051971.4200554,-88.8671875,-426.7578125,-113.76953125,-1000.0,0
1685051971.4249623,253.41796875,-83.0078125,-87.40234375,-1000.0,0
1685051971.4298692,-1000.0,-1000.0,-401.3671875,-1000.0,0
1685051971.4347763,-947.75390625,-976.5625,-511.23046875,-1000.0,0
1685051971.4396832,-1000.0,-1000.0,-452.1484375,-1000.0,0
1685051971.44459,-88.8671875,-568.359375,-355.46875,-1000.0,0
1685051971.4484296,253.41796875,-185.05859375,-252.9296875,-1000.0,0
1685051971.4522688,-1000.0,-993.1640625,-264.6484375,-1000.0,0
1685051971.4561083,-937.5,-996.58203125,-430.17578125,-1000.0,0
1685051971.4599478,-1000.0,-1000.0,-544.43359375,-1000.0,0
1685051971.463787,-295.41015625,-743.1640625,-369.140625,-1000.0,0
1685051971.4676266,167.48046875,-367.67578125,-136.23046875,-1000.0,0
1685051971.471466,-1000.0,-955.078125,-203.61328125,-1000.0,0
1685051971.4753053,-962.890625,-1000.0,-504.39453125,-1000.0,0
1685051971.4791448,-1000.0,-1000.0,-549.31640625,-1000.0,0
1685051971.4829843,-621.09375,-893.5546875,-175.29296875,-1000.0,0
1685051971.4868236,-105.95703125,-569.82421875,38.57421875,-1000.0,0
1685051971.490663,-992.67578125,-921.38671875,-261.71875,-1000.0,0
1685051971.494398,-1000.0,-1000.0,-454.1015625,-1000.0,0
1685051971.498133,-996.09375,-999.0234375,-458.0078125,-1000.0,0
1685051971.501868,-945.3125,-973.14453125,-363.76953125,-1000.0,0
1685051971.505603,-694.3359375,-711.9140625,-214.35546875,-1000.0,0
1685051971.509338,-956.54296875,-904.78515625,-215.33203125,-1000.0,0
1685051971.513073,-1000.0,-1000.0,-311.03515625,-1000.0,0
1685051971.516808,-980.46875,-988.28125,-416.9921875,-1000.0,0
1685051971.5205429,-1000.0,-1000.0,-393.5546875,-1000.0,0
1685051971.524278,-1000.0,-819.82421875,-131.8359375,-1000.0,0
1685051971.528013,-1000.0,-907.71484375,-24.4140625,-1000.0,0
1685051971.5317478,-1000.0,-1000.0,-311.5234375,-1000.0,0
1685051971.535483,-1000.0,-985.83984375,-438.4765625,-1000.0,0
1685051971.539321,-1000.0,-1000.0,-242.67578125,-1000.0,0
1685051971.543159,-1000.0,-809.08203125,-55.6640625,-1000.0,0
1685051971.5469968,-1000.0,-848.6328125,-151.3671875,-1000.0,0
1685051971.550835,-1000.0,-1000.0,-338.8671875,-1000.0,0
1685051971.554673,-1000.0,-980.46875,-401.85546875,-1000.0,0
1685051971.5585108,-1000.0,-1000.0,-247.0703125,-1000.0,0
1685051971.5623488,-1000.0,-770.5078125,-63.96484375,-1000.0,0
1685051971.566187,-1000.0,-761.23046875,-92.28515625,-1000.0,0
1685051971.570025,-1000.0,-1000.0,-109.86328125,-1000.0,0
1685051971.573863,-1000.0,-973.6328125,-196.77734375,-1000.0,0
1685051971.5777009,-1000.0,-1000.0,-313.96484375,-1000.0,0
1685051971.581539,-1000.0,-705.56640625,-104.98046875,-1000.0,0
1685051971.5852697,-1000.0,-621.58203125,29.296875,-1000.0,0
1685051971.5890007,-999.51171875,-1000.0,-112.79296875,-1000.0,0
1685051971.5927315,-1000.0,-970.21484375,-324.21875,-1000.0,0
1685051971.5964622,-1000.0,-1000.0,-278.80859375,-1000.0,0
1685051971.600193,-978.02734375,-665.0390625,13.671875,-1000.0,0
1685051971.6039238,-988.28125,-491.2109375,138.18359375,-1000.0,0
1685051971.6076548,-1000.0,-1000.0,-57.12890625,-1000.0,0
1685051971.6113856,-946.77734375,-966.796875,-222.65625,-1000.0,0
1685051971.6151164,-1000.0,-1000.0,-83.0078125,-1000.0,0
1685051971.6188474,-415.0390625,-651.85546875,14.16015625,-988.28125,0
1685051971.6225781,-203.61328125,-296.38671875,43.9453125,-1000.0,0
1685051971.626309,-1000.0,-986.328125,11.23046875,-990.72265625,0
1685051971.629975,-926.26953125,-983.3984375,-168.9453125,-782.71484375,0
1685051971.6336415,-1000.0,-1000.0,-250.9765625,-937.01171875,0
1685051971.6373076,-431.15234375,-708.49609375,-47.8515625,-1000.0,0
1685051971.640974,42.48046875,1.953125,201.171875,-1000.0,0
1685051971.6446402,-1000.0,-759.765625,111.328125,-1000.0,0
1685051971.6483064,-950.1953125,-1000.0,-86.42578125,15.625,0
1685051971.6519728,-1000.0,-1000.0,-136.23046875,-357.421875,0
1685051971.655639,-444.82421875,-824.70703125,144.53125,-1000.0,0
1685051971.6593053,295.41015625,304.19921875,393.5546875,-935.05859375,0
1685051971.6629715,-957.51953125,-344.7265625,122.55859375,-1000.0,0
1685051971.666638,-993.1640625,-1000.0,-114.2578125,333.49609375,0
1685051971.670304,-1000.0,-997.0703125,-130.859375,246.58203125,0
1685051971.6740768,-649.4140625,-912.109375,5.37109375,-1000.0,0
1685051971.6778495,631.8359375,521.97265625,159.1796875,-1000.0,0
1685051971.6816223,-475.09765625,84.9609375,167.96875,-766.11328125,0
1685051971.685395,-1000.0,-1000.0,-12.20703125,817.87109375,0
1685051971.6891677,-913.57421875,-942.87109375,-86.9140625,303.7109375,0
1685051971.6929405,-659.66796875,-932.12890625,107.91015625,-1000.0,0
1685051971.6967132,666.015625,423.828125,286.1328125,-1000.0,0
1685051971.700486,-56.640625,236.328125,464.84375,-391.6015625,0
1685051971.7042587,-1000.0,-1000.0,209.9609375,-921.875,0
1685051971.7080314,-940.4296875,-957.51953125,-134.765625,621.58203125,0
1685051971.7118042,-1000.0,-1000.0,28.80859375,-771.484375,0
1685051971.715577,430.6640625,259.765625,231.4453125,-1000.0,0
1685051971.720423,241.69921875,370.1171875,189.94140625,-423.828125,0
1685051971.7252693,-1000.0,-1000.0,-12.6953125,909.66796875,0
1685051971.7301154,-943.84765625,-962.40234375,-84.47265625,-961.9140625,0
1685051971.7349615,-1000.0,-1000.0,17.08984375,-203.125,0
1685051971.7398078,261.71875,123.046875,173.33984375,-1000.0,0
1685051971.744654,318.359375,534.1796875,268.5546875,-263.671875,0
1685051971.7495,-1000.0,-961.9140625,245.1171875,940.91796875,0
1685051971.7543464,-944.3359375,-987.79296875,120.60546875,-896.97265625,0
1685051971.7591925,-1000.0,-1000.0,28.80859375,185.546875,0
1685051971.7640386,164.0625,-5.859375,189.94140625,-1000.0,0
1685051971.768885,391.11328125,793.45703125,331.54296875,-202.1484375,0
1685051971.773731,-1000.0,-691.40625,167.48046875,996.09375,0
1685051971.778761,-944.82421875,-1000.0,-75.68359375,-917.48046875,0
1685051971.7837908,-1000.0,-1000.0,-15.625,276.3671875,0
1685051971.7888207,68.84765625,-113.76953125,220.21484375,-1000.0,0
1685051971.7938507,645.01953125,-985.3515625,294.921875,-238.28125,0
1685051971.7988806,-942.87109375,-355.95703125,143.06640625,986.328125,0
1685051971.8039105,-999.51171875,-1000.0,62.5,-939.94140625,0
1685051971.8089404,-1000.0,-1000.0,158.69140625,591.796875,0
1685051971.8139703,-69.82421875,-186.03515625,241.2109375,-995.60546875,0
1685051971.8190002,998.046875,-856.93359375,264.16015625,-287.59765625,0
1685051971.8240302,-505.859375,-43.9453125,235.3515625,-945.80078125,0
1685051971.82906,-1000.0,-1000.0,129.39453125,938.4765625,0
1685051971.83409,-1000.0,-1000.0,31.73828125,-985.3515625,0
1685051971.8367362,-191.40625,-222.16796875,147.94921875,-409.66796875,0
1685051971.8393822,-834.47265625,-825.68359375,402.34375,-341.30859375,0
1685051971.8420281,-88.37890625,137.6953125,374.0234375,-895.5078125,0
1685051971.8446743,-1000.0,-1000.0,66.89453125,882.32421875,0
1685051971.8473206,-1000.0,-1000.0,-15.625,-867.67578125,0
1685051971.8499665,-216.30859375,-246.09375,279.78515625,224.12109375,0
1685051971.8526125,-810.546875,-838.37890625,501.953125,-213.37890625,0
1685051971.8552587,166.015625,315.91796875,304.19921875,-966.30859375,0
1685051971.857905,-1000.0,-967.28515625,64.94140625,923.828125,0
1685051971.8605509,-1000.0,-1000.0,67.3828125,-894.04296875,0
1685051971.8631968,-187.5,-240.234375,197.265625,359.86328125,0
1685051971.865843,-812.98828125,-889.16015625,319.3359375,-135.25390625,0
1685051971.8695621,164.55078125,577.1484375,324.21875,993.65234375,0
1685051971.8732815,-1000.0,-731.4453125,300.78125,978.02734375,0
1685051971.8770006,-1000.0,-1000.0,183.10546875,976.07421875,0
1685051971.8807197,-209.47265625,-225.09765625,114.74609375,879.39453125,0
1685051971.884439,-829.1015625,-963.37890625,338.37890625,563.96484375,0
1685051971.888158,495.1171875,865.234375,437.98828125,913.57421875,0
1685051971.8918772,-887.20703125,-341.796875,242.67578125,-992.67578125,0
1685051971.8955965,-1000.0,-1000.0,30.2734375,942.3828125,0
1685051971.8993156,-134.765625,-208.984375,164.55078125,973.6328125,0
1685051971.9030347,-959.47265625,987.3046875,516.11328125,967.7734375,0
1685051971.906754,965.33203125,-962.40234375,447.265625,967.7734375,0
1685051971.910473,-281.73828125,13.18359375,159.66796875,967.7734375,0
1685051971.9142056,-1000.0,-1000.0,104.4921875,967.7734375,0
1685051971.9179378,-70.80078125,-211.42578125,160.15625,967.7734375,0
1685051971.92167,994.62890625,974.12109375,296.38671875,967.7734375,0
1685051971.9254024,-920.8984375,-916.015625,408.203125,967.7734375,0
1685051971.9291348,194.82421875,276.85546875,338.37890625,967.7734375,0
1685051971.932867,-1000.0,-1000.0,229.98046875,967.7734375,0
1685051971.9365993,-123.046875,-245.1171875,172.8515625,967.7734375,0
1685051971.9403317,-981.4453125,990.72265625,265.625,967.7734375,0
1685051971.9440641,-924.31640625,-953.61328125,517.578125,967.7734375,0
1685051971.9477963,240.72265625,572.75390625,429.19921875,967.7734375,0
1685051971.9515285,-1000.0,-947.75390625,66.40625,967.7734375,0
1685051971.955261,-132.8125,-312.01171875,111.328125,967.7734375,0
1685051971.959025,-988.76953125,-976.07421875,347.16796875,967.7734375,0
1685051971.962789,-956.54296875,979.00390625,422.8515625,967.28515625,0
1685051971.966553,651.3671875,868.1640625,264.6484375,967.7734375,0
1685051971.970317,-958.984375,-574.70703125,98.14453125,967.7734375,0
1685051971.974081,-226.07421875,-379.8828125,128.41796875,967.7734375,0
1685051971.977845,-917.48046875,-959.9609375,332.51953125,967.7734375,0
1685051971.9816089,916.9921875,935.546875,491.69921875,967.7734375,0
1685051971.985373,-938.96484375,-954.1015625,376.953125,967.7734375,0
1685051971.989137,-363.28125,-235.83984375,337.890625,967.7734375,0
1685051971.9929008,-308.10546875,-413.0859375,255.859375,967.7734375,0
1685051971.996665,-893.5546875,-968.26171875,197.75390625,967.7734375,0
1685051972.000429,891.11328125,919.43359375,398.92578125,967.7734375,0
1685051972.0042286,-867.1875,-881.8359375,344.7265625,968.26171875,0
1685051972.0080283,-45.8984375,22.4609375,73.2421875,967.7734375,0
1685051972.011828,-282.71484375,-415.0390625,19.04296875,967.7734375,0
1685051972.0156276,-923.33984375,991.69921875,212.40234375,967.7734375,0
1685051972.0194273,910.15625,936.5234375,391.11328125,967.7734375,0
1685051972.023227,-880.859375,-902.83203125,362.3046875,967.7734375,0
1685051972.0270267,112.3046875,248.53515625,164.0625,967.7734375,0
1685051972.0308263,-181.640625,-351.07421875,204.58984375,967.7734375,0
1685051972.034626,-950.1953125,887.20703125,395.5078125,967.7734375,0
1685051972.0384257,912.59765625,962.890625,348.14453125,967.7734375,0
1685051972.0422254,-862.79296875,-920.8984375,280.2734375,967.7734375,0
1685051972.046025,59.08203125,386.71875,148.92578125,967.7734375,0
1685051972.0497353,-276.85546875,-343.75,14.16015625,967.28515625,0
1685051972.0534453,-932.12890625,791.015625,59.08203125,967.7734375,0
1685051972.0571556,902.83203125,988.76953125,267.08984375,967.7734375,0
1685051972.0608656,-867.67578125,-956.0546875,307.12890625,967.7734375,0
1685051972.064576,257.8125,556.15234375,67.87109375,967.7734375,0
1685051972.068286,-211.42578125,-334.47265625,-31.25,967.7734375,0
1685051972.0719962,-965.33203125,617.1875,107.421875,967.7734375,0
1685051972.0757065,922.36328125,-975.5859375,380.859375,967.7734375,0
1685051972.0794165,-901.3671875,-998.046875,338.8671875,967.28515625,0
1685051972.0831268,474.12109375,732.421875,21.97265625,967.7734375,0
1685051972.0868368,-61.5234375,-292.96875,-13.671875,967.7734375,0
1685051972.090547,988.76953125,407.71484375,102.05078125,967.7734375,0
1685051972.0942917,954.58984375,-948.73046875,157.2265625,967.7734375,0
1685051972.0980363,-963.37890625,968.26171875,199.21875,967.7734375,0
1685051972.101781,714.35546875,868.1640625,90.8203125,967.7734375,0
1685051972.1055255,181.15234375,-258.7890625,-89.84375,967.7734375,0
1685051972.10927,916.015625,188.4765625,-80.56640625,967.7734375,0
1685051972.1130147,985.3515625,-933.59375,132.32421875,967.7734375,0
1685051972.116759,987.79296875,940.4296875,370.60546875,967.7734375,0
1685051972.1205037,893.5546875,981.93359375,250.48828125,967.7734375,0
1685051972.1242483,291.9921875,-215.33203125,-131.8359375,967.7734375,0
1685051972.1279929,807.12890625,-19.53125,-148.4375,967.7734375,0
1685051972.1317375,-974.12109375,-922.8515625,68.84765625,967.7734375,0
1685051972.135482,948.2421875,917.48046875,183.59375,967.7734375,0
1685051972.1403146,991.2109375,-931.640625,64.94140625,967.7734375,0
1685051972.1451473,285.15625,-157.71484375,-120.1171875,967.28515625,0
1685051972.1499798,650.87890625,-218.75,-84.9609375,970.21484375,0
1685051972.1548123,-932.12890625,-933.10546875,44.43359375,958.984375,0
1685051972.159645,905.2734375,912.109375,100.5859375,957.03125,0
1685051972.1644776,-915.0390625,-892.578125,76.66015625,976.07421875,0
1685051972.16931,180.6640625,-104.98046875,7.8125,940.4296875,0
1685051972.1741428,330.56640625,-411.62109375,-138.671875,-966.796875,0
1685051972.1789753,-890.13671875,-980.95703125,-122.0703125,774.90234375,0
1685051972.1838078,875.9765625,925.29296875,107.421875,590.33203125,0
1685051972.1886406,-853.515625,-886.23046875,37.109375,991.69921875,0
1685051972.193473,80.078125,5.37109375,-254.39453125,925.78125,0
1685051972.1974657,-41.9921875,-610.3515625,-322.265625,-927.734375,0
1685051972.2014585,-894.04296875,861.328125,-122.0703125,660.15625,0
1685051972.205451,885.25390625,961.42578125,87.890625,191.89453125,0
1685051972.2094438,-850.09765625,-902.83203125,1.953125,950.68359375,0
1685051972.2134364,53.22265625,128.41796875,-267.08984375,936.03515625,0
1685051972.2174292,-259.27734375,-828.61328125,-175.29296875,-876.46484375,0
1685051972.2214217,-935.546875,594.23828125,59.5703125,318.84765625,0
1685051972.2254143,908.69140625,-995.1171875,11.71875,-369.62890625,0
1685051972.229407,-862.79296875,-924.8046875,-67.87109375,919.43359375,0
1685051972.2333996,76.171875,233.88671875,-201.171875,955.56640625,0
1685051972.2373924,-284.1796875,-975.5859375,-317.3828125,-894.04296875,0
1685051972.241385,-939.94140625,332.03125,-273.4375,231.93359375,0
1685051972.245049,901.3671875,-971.6796875,-69.82421875,-833.0078125,0
1685051972.248713,-859.86328125,-944.3359375,-13.671875,608.3984375,0
1685051972.252377,219.7265625,363.76953125,-245.60546875,-973.14453125,0
1685051972.256041,-350.5859375,-1000.0,-418.45703125,-948.2421875,0
1685051972.259705,996.58203125,51.26953125,-286.1328125,287.59765625,0
1685051972.263369,921.38671875,-960.9375,-18.06640625,-1000.0,0
1685051972.2670329,-882.32421875,-958.49609375,22.4609375,82.51953125,0
1685051972.2706969,400.87890625,475.5859375,-233.3984375,-948.73046875,0
1685051972.274361,-536.62109375,-1000.0,-371.58203125,-952.63671875,0
1685051972.278025,810.05859375,-151.3671875,-148.4375,366.69921875,0
1685051972.281689,996.09375,-963.8671875,-78.125,-1000.0,0
1685051972.285353,-961.42578125,-967.28515625,-148.4375,-218.75,0
1685051972.2891517,637.6953125,547.8515625,-233.3984375,-986.81640625,0
1685051972.2929506,-747.55859375,-987.79296875,-393.5546875,-926.26953125,0
1685051972.2967496,351.07421875,-302.734375,-432.6171875,254.39453125,0
1685051972.3005483,-910.64453125,-995.1171875,-258.30078125,-1000.0,0
1685051972.304347,963.8671875,-966.30859375,-103.515625,-315.91796875,0
1685051972.308146,828.125,598.6328125,-195.3125,957.03125,0
1685051972.311945,-763.671875,-900.390625,-397.94921875,-910.15625,0
1685051972.3157437,-110.83984375,-522.94921875,-437.5,268.06640625,0
1685051972.3195424,-909.66796875,875.0,-139.16015625,-1000.0,0
1685051972.3233414,971.19140625,-932.12890625,72.265625,-836.42578125,0
1685051972.3271403,848.6328125,594.23828125,-258.30078125,504.8828125,0
1685051972.330939,-748.53515625,-809.5703125,-513.671875,-802.734375,0
1685051972.33465,-306.640625,-822.75390625,-485.3515625,209.9609375,0
1685051972.3383608,-962.40234375,550.78125,-355.46875,-997.55859375,0
1685051972.3420718,-978.515625,-869.140625,-257.32421875,-1000.0,0
1685051972.3457828,723.14453125,524.90234375,-312.5,-18.5546875,0
1685051972.3494935,-894.04296875,-776.85546875,-429.19921875,-789.0625,0
1685051972.3532045,-439.453125,-1000.0,-483.3984375,290.52734375,0
1685051972.3569155,971.19140625,100.09765625,-386.71875,-970.21484375,0
1685051972.3606262,-944.82421875,-840.33203125,-217.7734375,-1000.0,0
1685051972.3643372,629.8828125,474.12109375,-167.48046875,-167.96875,0
1685051972.3680482,-892.578125,-798.828125,-400.87890625,-816.89453125,0
1685051972.371759,-860.3515625,-1000.0,-590.8203125,329.1015625,0
1685051972.37547,593.75,-199.70703125,-417.48046875,-956.0546875,0
1685051972.3792202,-830.56640625,-865.234375,-185.05859375,-1000.0,0
1685051972.3829706,479.4921875,492.1875,-329.1015625,-321.2890625,0
1685051972.386721,-861.81640625,-804.6875,-574.21875,-877.44140625,0
1685051972.3904712,-1000.0,-1000.0,-603.02734375,508.7890625,0
1685051972.3942215,7.32421875,-433.10546875,-504.39453125,-866.69921875,0
1685051972.397972,-801.7578125,-983.88671875,-322.75390625,-1000.0,0
1685051972.4017224,480.46875,571.2890625,-296.38671875,-437.01171875,0
1685051972.4054728,-860.3515625,-793.9453125,-390.13671875,-970.703125,0
1685051972.409223,-1000.0,-1000.0,-478.02734375,663.0859375,0
1685051972.4129734,-236.81640625,-673.828125,-587.890625,-750.9765625,0
1685051972.4167237,-869.62890625,756.8359375,-385.7421875,-1000.0,0
1685051972.420474,593.26171875,719.23828125,-245.60546875,-636.71875,0
1685051972.4242365,-801.7578125,-718.75,-448.2421875,789.55078125,0
1685051972.4279988,-1000.0,-1000.0,-672.8515625,938.96484375,0
1685051972.4317613,-221.6796875,-887.20703125,-584.9609375,-479.98046875,0
1685051972.4355237,-908.69140625,421.875,-300.78125,-1000.0,0
1685051972.439286,743.65234375,888.671875,-278.3203125,-831.0546875,0
1685051972.4430485,-608.88671875,-563.4765625,-452.1484375,437.98828125,0
1685051972.446811,-1000.0,-1000.0,-544.921875,-817.87109375,0
1685051972.4505732,-378.41796875,-986.81640625,-420.8984375,-68.359375,0
1685051972.4543357,963.37890625,160.64453125,-304.6875,-1000.0,0
1685051972.4580982,960.9375,-966.30859375,-349.609375,-1000.0,0
1685051972.4618604,-329.58984375,-331.54296875,-431.15234375,126.46484375,0
1685051972.465623,-1000.0,-1000.0,-540.52734375,-794.921875,0
1685051972.4695017,-515.625,-1000.0,-588.37890625,-43.9453125,0
1685051972.4733803,838.8671875,-18.5546875,-423.33984375,-1000.0,0
1685051972.4772592,-897.4609375,-864.2578125,-164.0625,-1000.0,0
1685051972.481138,-79.1015625,-97.16796875,-292.48046875,-148.4375,0
1685051972.4850166,-1000.0,-1000.0,-599.12109375,-808.59375,0
1685051972.4888954,-719.23828125,-1000.0,-560.05859375,81.54296875,0
1685051972.4927742,613.76953125,-128.41796875,-222.16796875,-1000.0,0
1685051972.4966528,-822.75390625,-818.84765625,-73.2421875,-1000.0,0
1685051972.5005317,107.421875,63.96484375,-379.39453125,-273.4375,0
1685051972.5044105,-1000.0,-1000.0,-573.2421875,-833.984375,0
1685051972.508289,-923.33984375,-1000.0,-535.64453125,146.484375,0
1685051972.512168,366.2109375,-219.7265625,-399.4140625,-1000.0,0
1685051972.516906,-784.1796875,-825.1953125,-310.05859375,-1000.0,0
1685051972.521644,147.4609375,185.05859375,-348.14453125,-457.51953125,0
1685051972.5263822,-1000.0,-1000.0,-493.65234375,-921.38671875,0
1685051972.5311203,-1000.0,-1000.0,-574.21875,172.36328125,0
1685051972.5358584,145.5078125,-288.0859375,-394.04296875,-1000.0,0
1685051972.5405965,-769.04296875,-854.00390625,-168.9453125,-1000.0,0
1685051972.5453346,154.296875,324.21875,-37.59765625,-556.640625,0
1685051972.5500727,-1000.0,-961.42578125,-291.9921875,-988.28125,0
1685051972.5548108,-1000.0,-1000.0,-594.23828125,211.42578125,0
1685051972.5595489,-11.71875,-346.19140625,-397.94921875,-1000.0,0
1685051972.564287,-781.73828125,-914.55078125,-206.54296875,-917.48046875,0
1685051972.569025,364.2578125,524.4140625,-290.52734375,-1000.0,0
1685051972.5728893,-934.5703125,-806.15234375,-487.79296875,33.69140625,0
1685051972.5767536,-1000.0,-1000.0,-518.5546875,283.69140625,0
1685051972.580618,-171.38671875,-447.265625,-407.71484375,-1000.0,0
1685051972.584482,-839.35546875,971.6796875,-284.66796875,-940.4296875,0
1685051972.5883462,542.48046875,707.03125,-284.1796875,-1000.0,0
1685051972.5922105,-834.47265625,-643.5546875,-322.265625,-63.4765625,0
1685051972.5960748,-1000.0,-1000.0,-362.3046875,283.69140625,0
1685051972.599939,-222.65625,-587.890625,-391.11328125,-1000.0,0
1685051972.6038032,-910.15625,792.96875,-276.85546875,-941.89453125,0
1685051972.6076674,757.8125,874.0234375,-82.51953125,-1000.0,0
1685051972.6115317,-611.328125,-479.4921875,-226.07421875,-145.01953125,0
1685051972.615396,-1000.0,-1000.0,-572.265625,321.2890625,0
1685051972.6191585,-192.3828125,-769.53125,-484.86328125,-1000.0,0
1685051972.622921,-965.8203125,525.390625,-238.76953125,-947.265625,0
1685051972.6266835,940.4296875,-970.703125,-206.0546875,-1000.0,0
1685051972.630446,-311.03515625,-283.203125,-388.18359375,-306.15234375,0
1685051972.6342084,-1000.0,-1000.0,-502.9296875,411.62109375,0
1685051972.637971,-321.77734375,-916.015625,-387.6953125,-958.984375,0
1685051972.6417336,953.125,262.20703125,-228.515625,-985.83984375,0
1685051972.6454961,-949.70703125,-875.9765625,-229.4921875,-1000.0,0
1685051972.6492586,-115.234375,-117.67578125,-323.73046875,-512.6953125,0
1685051972.653021,-1000.0,-1000.0,-264.6484375,552.24609375,0
1685051972.6567836,-492.1875,-1000.0,-323.2421875,-708.49609375,0
1685051972.660546,847.65625,62.01171875,-335.9375,-1000.0,0
1685051972.6643023,-881.34765625,-824.21875,-157.2265625,-999.51171875,0
1685051972.6680584,46.38671875,20.01953125,-262.20703125,-909.66796875,0
1685051972.6718144,-1000.0,-1000.0,-510.7421875,82.51953125,0
1685051972.6755707,-748.53515625,-1000.0,-526.85546875,-588.37890625,0
1685051972.679327,594.7265625,-105.95703125,-307.6171875,-1000.0,0
1685051972.683083,-814.453125,-811.03515625,-102.05078125,-947.265625,0
1685051972.686839,148.4375,126.953125,-190.4296875,-1000.0,0
1685051972.6905954,-1000.0,-1000.0,-486.81640625,101.5625,0
1685051972.6943517,-1000.0,-1000.0,-394.53125,-231.93359375,0
1685051972.6981077,242.1875,-227.05078125,-177.24609375,-1000.0,0
1685051972.7018638,-771.484375,-828.61328125,-223.6328125,-923.828125,0
1685051972.70562,137.6953125,216.796875,-246.58203125,-1000.0,0
1685051972.709376,-1000.0,-1000.0,-360.83984375,57.6171875,0
1685051972.7131321,-1000.0,-1000.0,-470.21484375,-52.24609375,0
1685051972.7168884,-12.20703125,-350.5859375,-398.92578125,-1000.0,0
1685051972.7206445,-778.80859375,-879.39453125,-208.49609375,-906.25,0
1685051972.7244005,140.13671875,325.1953125,-219.23828125,-1000.0,0
1685051972.7281566,-1000.0,-971.6796875,-401.3671875,-37.109375,0
1685051972.7319126,-1000.0,-1000.0,-501.953125,167.48046875,0
1685051972.7356687,-239.74609375,-509.765625,-386.71875,-1000.0,0
1685051972.7394247,-823.2421875,987.3046875,-66.89453125,-930.6640625,0
1685051972.743181,252.9296875,474.609375,-172.36328125,-1000.0,0
1685051972.746937,-1000.0,-896.97265625,-490.234375,-87.40234375,0
1685051972.750693,-1000.0,-1000.0,-506.34765625,245.60546875,0
1685051972.7545588,-260.7421875,-636.23046875,-391.6015625,-1000.0,0
1685051972.7584245,-837.890625,831.54296875,-220.703125,-945.3125,0
1685051972.7622902,418.9453125,659.1796875,-221.19140625,-1000.0,0
1685051972.766156,-931.15234375,-766.6015625,-337.890625,-97.65625,0
1685051972.7700217,-1000.0,-1000.0,-427.734375,258.30078125,0
1685051972.7738876,-264.16015625,-815.4296875,-394.04296875,-1000.0,0
1685051972.7777534,-873.046875,545.8984375,-211.9140625,-937.5,0
1685051972.781619,582.51953125,849.12109375,-63.4765625,-1000.0,0
1685051972.7854848,-798.33984375,-599.12109375,-204.1015625,-274.90234375,0
1685051972.7893505,-1000.0,-1000.0,-533.203125,250.48828125,0
1685051972.7932162,-416.9921875,-937.5,-475.09765625,-1000.0,0
1685051972.797082,991.2109375,270.99609375,-245.1171875,-960.44921875,0
1685051972.8006878,841.796875,-988.76953125,-195.80078125,-1000.0,0
1685051972.8042936,-551.7578125,-369.140625,-401.85546875,-524.4140625,0
1685051972.8078995,-1000.0,-1000.0,-533.69140625,208.984375,0
1685051972.8115053,-480.46875,-1000.0,-404.78515625,-930.6640625,0
1685051972.8151112,817.87109375,60.05859375,-236.81640625,-1000.0,0
1685051972.818717,-936.03515625,-880.37109375,-143.5546875,-1000.0,0
1685051972.8223228,-230.95703125,-143.06640625,-242.1875,-725.09765625,0
1685051972.8259287,-1000.0,-1000.0,-252.9296875,376.46484375,0
1685051972.8295345,-756.34765625,-1000.0,-274.4140625,-610.83984375,0
1685051972.8331404,570.80078125,-85.9375,-333.0078125,-1000.0,0
1685051972.8367462,-830.078125,-826.171875,-164.0625,-967.7734375,0
1685051972.840352,-37.109375,25.390625,-239.2578125,-1000.0,0
1685051972.8441236,-1000.0,-1000.0,-481.4453125,-78.125,0
1685051972.8478951,-929.19921875,-1000.0,-507.8125,-559.5703125,0
1685051972.851667,316.40625,-181.640625,-282.71484375,-1000.0,1
1685051972.8554385,-777.34375,-818.84765625,-146.484375,-941.40625,0
1685051972.85921,133.7890625,149.90234375,-267.08984375,-1000.0,0
1685051972.8629816,-1000.0,-1000.0,-397.4609375,75.68359375,0
1685051972.866753,-1000.0,-1000.0,-298.33984375,-179.6875,0
1685051972.8705246,96.6796875,-264.6484375,-71.2890625,-1000.0,0
1685051972.8742962,-769.04296875,-841.30859375,-106.93359375,-907.2265625,0
1685051972.878068,144.04296875,287.59765625,-235.3515625,-1000.0,0
1685051972.8818395,-1000.0,-981.93359375,-367.67578125,13.671875,0
1685051972.885611,-1000.0,-1000.0,-447.75390625,86.42578125,0
1685051972.890502,-19.53125,-321.2890625,-367.1875,-1000.0,0
1685051972.8953931,-778.3203125,-890.625,-167.48046875,-920.41015625,0
1685051972.900284,227.05078125,458.0078125,-142.08984375,-1000.0,0
1685051972.905175,-995.60546875,-860.83984375,-386.23046875,-66.40625,0
1685051972.9100661,-1000.0,-1000.0,-494.62890625,192.3828125,0
1685051972.914957,-184.5703125,-404.78515625,-290.0390625,-1000.0,0
1685051972.919848,-822.75390625,-985.83984375,25.87890625,-937.01171875,0
1685051972.9247391,451.66015625,668.9453125,-57.12890625,-1000.0,0
1685051972.92963,-902.34375,-669.43359375,-343.26171875,-77.1484375,0
1685051972.934521,-1000.0,-1000.0,-362.3046875,261.23046875,0
1685051972.939412,-232.91015625,-499.51171875,-247.0703125,-1000.0,0
1685051972.944303,-896.97265625,875.0,-175.29296875,-943.359375,0
1685051972.94811,710.44921875,874.51171875,-184.08203125,-1000.0,0
1685051972.951917,-668.9453125,-435.546875,-286.1328125,-117.1875,0
1685051972.955724,-1000.0,-1000.0,-397.4609375,290.52734375,0
1685051972.959531,-192.3828125,-605.46875,-397.4609375,-1000.0,0
1685051972.963338,-969.7265625,709.9609375,-205.56640625,-941.89453125,0
1685051972.967145,956.0546875,-981.93359375,3.90625,-1000.0,0
1685051972.970952,-302.734375,-211.42578125,-149.4140625,-237.3046875,0
1685051972.9747589,-1000.0,-1000.0,-447.265625,384.27734375,0
1685051972.978566,-181.15234375,-749.51171875,-410.64453125,-998.53515625,0
1685051972.982373,994.62890625,512.6953125,-132.8125,-969.7265625,0
1685051972.9861798,-951.66015625,-868.65234375,-15.13671875,-1000.0,0
1685051972.989987,-35.15625,-37.59765625,-229.4921875,-427.24609375,0
1685051972.9938116,-1000.0,-1000.0,-430.6640625,559.08203125,0
1685051972.9976363,-338.37890625,-891.6015625,-345.21484375,-768.06640625,0
1685051973.001461,928.7109375,288.0859375,-168.45703125,-1000.0,0
1685051973.005286,-905.76171875,-817.87109375,-146.97265625,-1000.0,0
1685051973.0091107,145.01953125,79.1015625,-263.671875,-578.61328125,0
1685051973.0129354,-1000.0,-1000.0,-328.125,707.51953125,0
1685051973.01676,-530.76171875,-998.046875,-346.19140625,-463.37890625,0
1685051973.0205848,841.796875,88.37890625,-261.23046875,-1000.0,0
1685051973.0244098,-869.62890625,-809.08203125,-86.9140625,-996.58203125,0
1685051973.0282345,199.21875,175.29296875,-82.51953125,-889.6484375,0
1685051973.0320592,-1000.0,-1000.0,-373.046875,510.25390625,0
1685051973.035884,-732.421875,-1000.0,-466.796875,-176.7578125,0
1685051973.0396097,668.9453125,8.30078125,-206.54296875,-1000.0,0
1685051973.0433357,-825.68359375,-824.21875,-39.55078125,-930.6640625,0
1685051973.0470614,161.62109375,278.80859375,-190.4296875,-1000.0,0
1685051973.0507872,-1000.0,-994.62890625,-426.26953125,291.015625,0
1685051973.0545132,-959.47265625,-1000.0,-356.93359375,106.93359375,0
1685051973.058239,308.10546875,-117.1875,-128.90625,-1000.0,0
1685051973.0619648,-779.78515625,-853.515625,-68.84765625,-926.26953125,0
1685051973.0656908,166.9921875,380.37109375,-216.30859375,-1000.0,0
1685051973.0694165,-1000.0,-904.78515625,-262.6953125,115.72265625,0
1685051973.0731423,-1000.0,-1000.0,-267.08984375,203.61328125,0
1685051973.0768683,-35.64453125,-321.2890625,-343.26171875,-1000.0,0
1685051973.080594,-782.2265625,-908.69140625,-180.17578125,-925.29296875,0
1685051973.0854702,303.22265625,529.78515625,-160.64453125,-1000.0,0
1685051973.0903463,-960.9375,-794.43359375,-382.8125,-47.36328125,0
1685051973.0952222,-1000.0,-1000.0,-500.48828125,255.37109375,0
1685051973.1000984,-230.46875,-458.49609375,-319.82421875,-1000.0,0
1685051973.1049745,-838.8671875,966.30859375,-62.98828125,-945.3125,0
1685051973.1098504,469.7265625,693.84765625,-65.91796875,-1000.0,0
1685051973.1147265,-899.90234375,-663.57421875,-303.22265625,-57.12890625,0
1685051973.1196027,-1000.0,-1000.0,-416.015625,279.296875,0
1685051973.1244788,-235.83984375,-623.046875,-240.234375,-1000.0,0
1685051973.129355,-884.27734375,756.8359375,-140.625,-940.4296875,0
1685051973.1342309,658.203125,885.25390625,-207.51953125,-1000.0,0
1685051973.139107,-728.02734375,-479.00390625,-313.4765625,-147.4609375,0
1685051973.1417255,-1000.0,-1000.0,-436.5234375,316.40625,0
1685051973.1443439,-247.0703125,-796.38671875,-447.265625,-1000.0,0
1685051973.1469624,-951.171875,497.0703125,-260.7421875,-945.80078125,0
1685051973.149581,850.09765625,-979.00390625,-125.48828125,-1000.0,0
1685051973.1521995,-466.796875,-311.03515625,-270.99609375,-345.21484375,0
1685051973.154818,-1000.0,-1000.0,-426.7578125,394.04296875,0
1685051973.1574364,-403.80859375,-926.7578125,-362.79296875,-949.21875,0
1685051973.160055,927.734375,241.2109375,-82.03125,-995.1171875,0
1685051973.1626735,-972.16796875,-879.8828125,-36.1328125,-1000.0,0
1685051973.1652918,-220.21484375,-135.7421875,-317.87109375,-574.21875,0
1685051973.1679103,-1000.0,-1000.0,-504.39453125,404.78515625,0
1685051973.170529,-625.48828125,-1000.0,-314.94140625,-758.7890625,0
1685051973.1742687,734.375,3.41796875,-90.33203125,-1000.0,0
1685051973.1780088,-863.76953125,-825.1953125,-182.12890625,-1000.0,0
1685051973.1817486,-63.4765625,12.20703125,-283.203125,-785.64453125,0
1685051973.1854887,-1000.0,-1000.0,-368.65234375,408.203125,0
1685051973.1892285,-891.11328125,-1000.0,-417.96875,-491.2109375,0
1685051973.1929684,388.671875,-145.01953125,-261.71875,-1000.0,0
1685051973.1967084,-789.0625,-818.84765625,-89.84375,-983.88671875,0
1685051973.2004483,49.31640625,89.84375,-80.078125,-947.75390625,0
1685051973.2041883,-1000.0,-1000.0,-296.875,411.1328125,0
1685051973.2079282,-1000.0,-1000.0,-517.578125,-186.03515625,0
1685051973.2116683,74.70703125,-266.11328125,-294.921875,-1000.0,0
1685051973.215408,-766.6015625,-838.8671875,-38.0859375,-906.73828125,0
1685051973.219169,135.7421875,193.84765625,-215.33203125,-1000.0,0
1685051973.2229297,-1000.0,-1000.0,-472.65625,86.9140625,0
1685051973.2266905,-1000.0,-1000.0,-460.9375,59.08203125,0
1685051973.2304513,-161.1328125,-397.94921875,-318.359375,-1000.0,0
1685051973.2342122,-806.640625,-899.90234375,-188.96484375,-921.38671875,0
1685051973.2379732,156.73828125,311.03515625,-177.24609375,-1000.0,0
1685051973.241734,-1000.0,-990.234375,-230.95703125,21.97265625,0
1685051973.2454948,-1000.0,-1000.0,-292.96875,203.125,0
1685051973.2492557,-257.8125,-534.1796875,-358.3984375,-1000.0,0
1685051973.2530165,-829.58984375,971.6796875,-184.5703125,-930.17578125,0
1685051973.2567773,200.1953125,455.078125,-119.140625,-1000.0,0
1685051973.260538,-1000.0,-923.33984375,-347.16796875,-83.0078125,0
1685051973.26548,-1000.0,-1000.0,-511.23046875,243.65234375,0
1685051973.270422,-263.671875,-690.91796875,-380.859375,-1000.0,0
1685051973.2753642,-832.51953125,763.18359375,-141.6015625,-940.4296875,0
1685051973.280306,356.93359375,659.1796875,-166.015625,-1000.0,0
1685051973.285248,-955.56640625,-780.76171875,-376.953125,-153.3203125,0
1685051973.2901902,-1000.0,-1000.0,-423.33984375,254.8828125,0
1685051973.2951322,-350.5859375,-837.40234375,-198.73046875,-1000.0,0
1685051973.300074,-889.16015625,513.671875,-94.23828125,-945.3125,0
1685051973.305016,539.55078125,864.2578125,-187.98828125,-1000.0,0
1685051973.309958,-855.95703125,-583.0078125,-289.55078125,-247.0703125,0
1685051973.3149002,-1000.0,-1000.0,-412.109375,267.578125,0
1685051973.319842,-480.46875,-939.453125,-411.1328125,-1000.0,0
1685051973.3235567,982.91015625,272.94921875,-195.80078125,-955.56640625,0
1685051973.3272715,787.109375,-996.58203125,-9.27734375,-1000.0,0
1685051973.330986,-627.44140625,-385.25390625,-171.875,-474.12109375,0
1685051973.3347008,-1000.0,-1000.0,-469.23828125,270.99609375,0
1685051973.3384154,-651.85546875,-1000.0,-454.58984375,-934.08203125,0
1685051973.3421302,755.37109375,43.45703125,-161.1328125,-1000.0,0
1685051973.3458447,-956.54296875,-884.765625,-33.69140625,-1000.0,0
1685051973.3495593,-339.84375,-158.203125,-259.27734375,-696.77734375,0
1685051973.353274,-1000.0,-1000.0,-456.0546875,312.98828125,0
1685051973.3569887,-895.01953125,-1000.0,-301.26953125,-695.3125,0
1685051973.3607035,380.37109375,-119.62890625,-121.58203125,-1000.0,0
1685051973.364418,-816.40625,-833.0078125,-154.78515625,-1000.0,0
1685051973.3683822,-145.01953125,2.9296875,-232.91015625,-866.69921875,0
1685051973.3723462,-1000.0,-1000.0,-374.0234375,397.94921875,0
1685051973.3763103,-1000.0,-1000.0,-390.13671875,-368.1640625,0
1685051973.3802743,76.171875,-236.328125,-234.375,-1000.0,0
1685051973.3842385,-774.4140625,-835.44921875,-106.93359375,-974.12109375,0
1685051973.3882027,7.8125,98.6328125,-27.83203125,-951.171875,0
1685051973.3921666,-1000.0,-1000.0,-240.234375,468.26171875,0
1685051973.3961308,-1000.0,-1000.0,-467.28515625,-47.8515625,0
1685051973.4000947,-129.39453125,-351.5625,-267.08984375,-1000.0,0
1685051973.404059,-793.45703125,-870.1171875,-21.97265625,-914.0625,0
1685051973.4080229,151.3671875,209.47265625,-166.9921875,-1000.0,0
1685051973.411987,-1000.0,-1000.0,-404.78515625,179.6875,0
1685051973.415592,-1000.0,-1000.0,-403.3203125,210.9375,0
1685051973.4191966,-255.859375,-485.3515625,-252.44140625,-1000.0,0
1685051973.4228015,-830.078125,-961.42578125,-121.09375,-941.40625,0
1685051973.4264064,170.41015625,329.58984375,-152.34375,-1000.0,0
1685051973.4300113,-1000.0,-999.51171875,-298.828125,131.8359375,0
1685051973.4336162,-1000.0,-1000.0,-340.8203125,285.15625,0
1685051973.4372208,-257.8125,-634.27734375,-233.88671875,-1000.0,0
1685051973.4408257,-829.58984375,872.55859375,-101.5625,-991.2109375,0
1685051973.4444306,194.82421875,487.79296875,20.01953125,-1000.0,0
1685051973.4480352,-1000.0,-924.8046875,-63.96484375,371.09375,0
1685051973.4516401,-1000.0,-1000.0,-401.85546875,335.44921875,0
1685051973.455245,-308.10546875,-772.94921875,-356.93359375,-1000.0,0
1685051973.4590406,-848.6328125,651.3671875,-116.69921875,-918.45703125,0
1685051973.4628363,380.859375,716.30859375,-114.2578125,-1000.0,0
1685051973.466632,-944.3359375,-735.83984375,-325.1953125,-68.84765625,0
1685051973.4704273,-1000.0,-1000.0,-425.78125,479.98046875,0
1685051973.474223,-444.82421875,-839.84375,-297.36328125,-997.0703125,0
1685051973.4780185,-939.94140625,484.86328125,-88.8671875,-975.5859375,0
1685051973.4818141,592.28515625,908.203125,-62.01171875,-1000.0,0
1685051973.4856098,-827.1484375,-519.04296875,-227.05078125,-118.1640625,0
1685051973.4894052,-1000.0,-1000.0,-174.8046875,851.5625,0
1685051973.4932008,-549.8046875,-956.0546875,-179.6875,-664.55078125,0
1685051973.4969964,910.64453125,205.078125,-216.30859375,-1000.0,0
1685051973.500792,890.13671875,-935.05859375,-42.96875,-1000.0,0
1685051973.5045857,-513.671875,-259.765625,-154.296875,-223.6328125,0
1685051973.5083797,-1000.0,-1000.0,-422.8515625,944.82421875,0
1685051973.5121737,-678.7109375,-1000.0,-408.69140625,-486.81640625,0
1685051973.5159674,683.10546875,35.15625,-151.3671875,-1000.0,0
1685051973.519761,-880.37109375,-844.23828125,-18.06640625,-1000.0,0
1685051973.523555,-179.6875,-41.015625,-139.16015625,-280.2734375,0
1685051973.527349,-1000.0,-1000.0,-323.2421875,-863.28125,0
1685051973.5311427,-844.23828125,-1000.0,-214.84375,-73.2421875,0
1685051973.5349364,440.91796875,-89.35546875,3.90625,-1000.0,0
1685051973.5387304,-802.734375,-812.5,-7.8125,-1000.0,0
1685051973.5425243,20.5078125,99.609375,-100.09765625,-305.6640625,0
1685051973.546318,-1000.0,-1000.0,-251.953125,-841.796875,0
1685051973.550002,-981.93359375,-1000.0,-307.12890625,128.90625,0
1685051973.5536864,240.72265625,-162.59765625,-208.0078125,-1000.0,0
1685051973.5573707,-771.484375,-815.4296875,-37.109375,-1000.0,0
1685051973.5610547,145.01953125,233.88671875,-81.54296875,-337.40234375,0
1685051973.5647388,-1000.0,-1000.0,-298.828125,-856.93359375,0
1685051973.568423,-1000.0,-1000.0,-330.078125,196.2890625,0
1685051973.5721073,90.8203125,-225.09765625,-125.0,-1000.0,0
1685051973.5757914,-770.01953125,-849.609375,130.37109375,-1000.0,0
1685051973.5794754,145.99609375,405.2734375,5.37109375,-370.1171875,0
1685051973.5831597,-1000.0,-894.04296875,-312.98828125,-875.9765625,0
1685051973.586844,-1000.0,-1000.0,-337.890625,365.72265625,0
1685051973.590528,-28.80859375,-269.04296875,-174.31640625,-960.44921875,0
1685051973.5943923,-783.69140625,-910.64453125,-17.578125,-1000.0,0
1685051973.5982566,366.2109375,621.09375,-88.37890625,-410.15625,0
1685051973.6021209,-937.98828125,-683.59375,-201.66015625,-931.15234375,0
1685051973.605985,-1000.0,-1000.0,-244.62890625,596.19140625,0
1685051973.6098492,-145.99609375,-325.68359375,-243.1640625,-815.91796875,0
1685051973.6137135,-851.07421875,-985.83984375,-44.43359375,-1000.0,0
1685051973.6175778,621.58203125,821.2890625,128.41796875,-307.12890625,0
1685051973.621442,-754.39453125,-440.91796875,-24.4140625,-968.75,0
1685051973.6253061,-1000.0,-1000.0,-328.125,838.37890625,0
1685051973.6291704,-185.546875,-395.01953125,-279.78515625,-489.2578125,0
1685051973.6330347,-966.30859375,912.109375,-36.62109375,-1000.0,0
1685051973.636899,948.73046875,994.140625,-18.06640625,-591.796875,0
1685051973.641675,-312.98828125,-162.109375,-252.44140625,748.53515625,0
1685051973.6464508,-1000.0,-1000.0,-325.68359375,-897.94921875,0
1685051973.6512268,-169.921875,-493.1640625,-194.3359375,-104.00390625,0
1685051973.6560028,993.65234375,804.19921875,-47.8515625,-1000.0,0
1685051973.6607785,-939.453125,-906.25,-20.99609375,-760.7421875,0
1685051973.6655545,-17.578125,18.06640625,-145.01953125,567.3828125,0
1685051973.6703305,-1000.0,-1000.0,-72.265625,-832.03125,0
1685051973.6751063,-174.31640625,-617.67578125,-62.01171875,5.37109375,0
1685051973.6798823,986.81640625,666.50390625,-122.55859375,-1000.0,0
1685051973.6846583,-916.9921875,-853.02734375,20.01953125,-850.09765625,0
1685051973.689434,200.1953125,142.578125,-97.16796875,427.24609375,0
1685051973.69421,-1000.0,-1000.0,-345.21484375,-797.8515625,0
1685051973.6979895,-241.69921875,-764.6484375,-348.6328125,99.609375,0
1685051973.701769,986.81640625,495.1171875,-100.5859375,-1000.0,0
1685051973.7055485,-918.9453125,-828.125,25.390625,-1000.0,0
1685051973.709328,229.00390625,266.6015625,-144.04296875,25.87890625,0
1685051973.7131076,-1000.0,-1000.0,-315.4296875,-779.296875,0
1685051973.716887,-375.9765625,-909.66796875,-164.55078125,157.71484375,0
1685051973.7206664,931.640625,313.96484375,64.94140625,-1000.0,0
1685051973.724446,-900.390625,-832.51953125,4.8828125,-1000.0,0
1685051973.7282255,281.73828125,411.62109375,-126.46484375,-160.64453125,0
1685051973.732005,-1000.0,-911.62109375,-206.54296875,-808.59375,0
1685051973.7357845,-517.578125,-1000.0,-259.765625,187.5,0
1685051973.739564,854.4921875,163.0859375,-192.3828125,-1000.0,0
1685051973.7433767,-882.32421875,-858.88671875,-23.92578125,-1000.0,0
1685051973.7471895,448.73046875,562.5,-59.5703125,-190.91796875,0
1685051973.7510023,-1000.0,-730.95703125,-299.31640625,-815.91796875,0
1685051973.7548153,-776.85546875,-1000.0,-392.578125,308.59375,0
1685051973.7586281,644.04296875,-3.90625,-199.70703125,-971.6796875,0
1685051973.762441,-862.79296875,-888.671875,64.453125,-1000.0,0
1685051973.7662537,593.75,701.66015625,32.2265625,-260.7421875,0
1685051973.7700665,-829.1015625,-551.7578125,-248.53515625,-865.72265625,0
1685051973.7738795,-1000.0,-1000.0,-343.75,556.640625,0
1685051973.7776923,358.88671875,-123.53515625,-53.7109375,-809.5703125,0
1685051973.781505,-877.9296875,-930.6640625,52.734375,-1000.0,0
1685051973.785318,794.43359375,842.28515625,-110.3515625,-330.56640625,0
1685051973.789082,-515.13671875,-351.07421875,-254.8828125,-939.453125,0
1685051973.7928462,-1000.0,-1000.0,-332.51953125,723.6328125,0
1685051973.7966104,118.1640625,-229.4921875,-297.8515625,-655.76171875,0
1685051973.8003745,-915.0390625,-982.421875,-142.578125,-1000.0,0
1685051973.8041387,942.3828125,940.4296875,-53.7109375,-355.46875,0
1685051973.8079028,-253.90625,-191.89453125,-183.10546875,976.5625,0
1685051973.8116672,-1000.0,-1000.0,-340.33203125,931.640625,0
1685051973.8154314,-100.5859375,-367.67578125,-346.6796875,-369.62890625,0
1685051973.8191955,-979.4921875,925.29296875,3.41796875,-1000.0,0
1685051973.8229597,-960.44921875,-964.35546875,149.4140625,-652.34375,0
1685051973.8267238,-60.05859375,-53.22265625,-239.2578125,689.94140625,0
1685051973.830488,-1000.0,-1000.0,-433.59375,-880.37109375,0
1685051973.834294,-174.8046875,-528.80859375,-288.57421875,-131.8359375,0
1685051973.8381004,991.69921875,771.484375,-106.93359375,-1000.0,0
1685051973.8419065,-922.36328125,-888.18359375,-118.1640625,-904.296875,0
1685051973.8457127,111.81640625,54.19921875,-253.90625,339.84375,0
1685051973.8495188,-1000.0,-1000.0,-375.9765625,-801.26953125,0
1685051973.853325,-187.98828125,-680.17578125,-319.3359375,20.5078125,0
1685051973.8571312,994.140625,595.703125,-148.4375,-1000.0,0
1685051973.8609374,-917.48046875,-841.30859375,-69.82421875,-978.515625,0
1685051973.8647435,225.5859375,167.96875,-70.80078125,241.2109375,0
1685051973.8685498,-1000.0,-1000.0,-310.546875,-783.203125,0
1685051973.872356,-244.62890625,-808.59375,-433.10546875,26.3671875,0
1685051973.876162,987.79296875,439.94140625,-145.5078125,-1000.0,0
1685051973.8798666,-918.45703125,-827.63671875,43.45703125,-1000.0,0
1685051973.8835711,242.67578125,325.68359375,-203.61328125,-241.2109375,0
1685051973.8872755,-1000.0,-1000.0,-429.6875,-826.171875,0
1685051973.89098,-346.19140625,-922.36328125,-363.76953125,120.1171875,0
1685051973.8946846,937.5,317.3828125,-206.54296875,-1000.0,0
1685051973.8983889,-909.1796875,-847.16796875,-60.546875,-1000.0,0
1685051973.9020934,444.82421875,486.81640625,-144.53125,-394.53125,0
1685051973.905798,-1000.0,-839.84375,-259.27734375,-888.671875,0
1685051973.9095025,-494.62890625,-1000.0,-207.03125,157.71484375,0
1685051973.913207,899.90234375,178.7109375,-248.046875,-1000.0,0
1685051973.9169114,-924.8046875,-878.41796875,-145.5078125,-977.05078125,0
1685051973.920616,641.6015625,654.78515625,-153.80859375,-1000.0,0
1685051973.9244666,-904.78515625,-615.72265625,-367.1875,391.6015625,0
1685051973.9283175,-757.8125,-1000.0,-429.6875,221.6796875,0
1685051973.9321682,738.76953125,-11.71875,-257.32421875,-1000.0,0
1685051973.936019,-911.1328125,-896.484375,-59.5703125,-916.50390625,0
1685051973.9398696,738.76953125,743.1640625,-132.8125,-1000.0,0
1685051973.9437203,-643.5546875,-488.76953125,-333.49609375,-20.99609375,0
1685051973.9475713,-1000.0,-1000.0,-376.46484375,246.58203125,0
1685051973.951422,298.33984375,-181.640625,-186.5234375,-1000.0,0
1685051973.9552727,-865.72265625,-932.6171875,-96.19140625,-939.453125,0
1685051973.9591236,776.85546875,812.5,-239.74609375,-1000.0,0
1685051973.9629743,-513.18359375,-407.2265625,-352.05078125,-110.3515625,0
1685051973.966825,-1000.0,-1000.0,-436.03515625,218.26171875,0
1685051973.970461,-56.15234375,-370.60546875,-425.78125,-1000.0,0
1685051973.9740968,-855.46875,-982.91015625,-243.1640625,-990.234375,0
1685051973.9777327,725.5859375,789.0625,-188.96484375,-1000.0,0
1685051973.9813688,-665.0390625,-535.64453125,-362.79296875,-32.2265625,0
1685051973.9850047,-1000.0,-1000.0,-479.00390625,143.5546875,0
1685051973.9886405,-187.5,-595.21484375,-416.015625,-1000.0,0
1685051973.9922764,-969.23828125,731.4453125,-94.7265625,-951.66015625,0
1685051973.9959123,943.359375,-998.53515625,50.29296875,-1000.0,0
1685051973.9995484,-320.3125,-262.6953125,-312.98828125,-567.3828125,0
1685051974.0031843,-1000.0,-1000.0,-552.734375,-28.3203125,0
1685051974.0068202,-223.6328125,-826.171875,-460.44921875,-1000.0,0
1685051974.010456,-997.0703125,425.78125,-280.76171875,-992.1875,0
1685051974.0153837,-990.72265625,-898.4375,-227.05078125,-1000.0,0
1685051974.0203116,-172.36328125,-158.69140625,-354.00390625,-753.90625,0
1685051974.0252392,-1000.0,-1000.0,-497.0703125,-165.52734375,0
1685051974.030167,-474.12109375,-992.67578125,-500.48828125,-922.36328125,0
1685051974.0350947,873.046875,104.4921875,-329.58984375,-1000.0,0
1685051974.0400224,-907.2265625,-845.703125,-146.97265625,-1000.0,0
1685051974.0449502,-82.03125,-53.7109375,-127.9296875,-895.5078125,0
1685051974.049878,-1000.0,-1000.0,-371.58203125,-225.09765625,0
1685051974.0548058,-766.6015625,-1000.0,-540.0390625,-819.3359375,0
1685051974.0597334,567.87109375,-103.02734375,-304.6875,-1000.0,0
1685051974.0646613,-817.87109375,-820.3125,-96.19140625,-966.30859375,0
1685051974.069589,13.18359375,52.734375,-295.41015625,-1000.0,0
1685051974.0733595,-1000.0,-1000.0,-543.45703125,-330.56640625,0
1685051974.0771303,-1000.0,-1000.0,-506.34765625,-632.8125,0
1685051974.080901,174.31640625,-239.2578125,-319.3359375,-1000.0,0
1685051974.0846715,-766.6015625,-832.51953125,-231.4453125,-933.59375,0
1685051974.0884423,123.53515625,145.99609375,-324.21875,-1000.0,0
1685051974.092213,-1000.0,-1000.0,-417.48046875,-142.08984375,0
1685051974.0959835,-1000.0,-1000.0,-431.640625,-239.2578125,0
1685051974.0997543,-73.2421875,-365.234375,-380.859375,-1000.0,0
1685051974.103525,-788.0859375,-877.44140625,-244.62890625,-925.29296875,0
1685051974.1072955,146.484375,247.0703125,-109.375,-1000.0,0
1685051974.1110663,-1000.0,-1000.0,-228.515625,-62.98828125,0
1685051974.114837,-1000.0,-1000.0,-538.57421875,-44.43359375,0
1685051974.1186364,-247.55859375,-510.7421875,-423.828125,-1000.0,0
1685051974.1224358,-827.63671875,-991.69921875,-171.875,-912.109375,0
1685051974.1262352,168.9453125,383.30078125,-229.98046875,-1000.0,0
1685051974.1300347,-1000.0,-971.19140625,-467.28515625,-100.5859375,0
1685051974.1338341,-1000.0,-1000.0,-526.85546875,158.203125,0
1685051974.1376333,-264.16015625,-660.64453125,-305.17578125,-1000.0,0
1685051974.1414328,-833.49609375,821.2890625,-138.671875,-933.59375,0
1685051974.1452322,326.171875,577.63671875,-227.5390625,-1000.0,0
1685051974.1490316,-1000.0,-873.046875,-374.0234375,-119.140625,0
1685051974.152831,-1000.0,-1000.0,-376.953125,247.55859375,0
1685051974.1566305,-106.93359375,-736.81640625,-346.6796875,-1000.0,0
1685051974.16043,-872.55859375,578.61328125,-203.61328125,-941.40625,0
1685051974.1641831,461.42578125,769.53125,-91.30859375,-1000.0,0
1685051974.1679363,-892.578125,-691.40625,-261.23046875,-230.46875,0
1685051974.1716897,-1000.0,-1000.0,-508.30078125,248.046875,0
1685051974.175443,-430.17578125,-920.41015625,-471.19140625,-1000.0,0
1685051974.1791961,-964.84375,336.9140625,-214.35546875,-948.2421875,0
1685051974.1829495,695.80078125,951.171875,-76.171875,-1000.0,0
1685051974.1867027,-716.796875,-475.5859375,-269.04296875,-338.37890625,0
1685051974.190456,-1000.0,-1000.0,-514.6484375,365.234375,0
1685051974.194209,-575.68359375,-1000.0,-317.87109375,-965.33203125,0
1685051974.1979623,853.02734375,87.890625,-56.640625,-985.3515625,0
1685051974.2017157,972.65625,-914.55078125,-171.875,-1000.0,0
1685051974.205469,-406.73828125,-224.12109375,-336.42578125,-512.6953125,0
1685051974.2092772,-1000.0,-1000.0,-444.82421875,491.69921875,0
1685051974.2130852,-753.41796875,-1000.0,-400.390625,-754.39453125,0
1685051974.2168934,591.30859375,-55.17578125,-254.39453125,-1000.0,0
1685051974.2207017,-856.93359375,-845.703125,-135.7421875,-1000.0,0
1685051974.2245097,-177.24609375,-46.875,-176.26953125,-710.9375,0
1685051974.228318,-1000.0,-1000.0,-339.35546875,680.17578125,0
1685051974.2321262,-957.51953125,-1000.0,-396.97265625,-333.0078125,0
1685051974.2359343,258.7890625,-176.7578125,-250.48828125,-1000.0,0
1685051974.2397425,-780.76171875,-822.75390625,-7.8125,-966.30859375,0
1685051974.2435508,5.859375,84.9609375,-149.90234375,-980.46875,0
1685051974.2473588,-1000.0,-1000.0,-466.30859375,411.1328125,0
1685051974.251167,-1000.0,-1000.0,-456.0546875,-93.26171875,0
1685051974.254891,20.01953125,-283.203125,-273.92578125,-1000.0,0
1685051974.2586148,-770.99609375,-844.23828125,-161.1328125,-931.640625,0
1685051974.2623386,140.625,187.01171875,-220.703125,-1000.0,0
1685051974.2660623,-1000.0,-1000.0,-345.703125,270.5078125,0
1685051974.2697861,-1000.0,-1000.0,-397.4609375,130.37109375,0
1685051974.27351,-162.109375,-395.01953125,-274.4140625,-1000.0,0
1685051974.2772338,-807.12890625,-896.484375,-105.46875,-995.1171875,0
1685051974.2809577,156.73828125,302.734375,-33.203125,-963.8671875,0
1685051974.2846813,-1000.0,-994.140625,-148.4375,537.59765625,0
1685051974.2884052,-1000.0,-1000.0,-438.4765625,261.71875,0
1685051974.292129,-258.30078125,-521.484375,-363.76953125,-1000.0,0
1685051974.295853,-829.58984375,980.95703125,-127.44140625,-915.52734375,0
1685051974.2995698,207.03125,472.16796875,-164.0625,-1000.0,0
1685051974.303287,-1000.0,-905.76171875,-403.3203125,-25.390625,0
1685051974.307004,-1000.0,-1000.0,-474.12109375,271.97265625,0
1685051974.310721,-263.671875,-650.87890625,-328.61328125,-1000.0,0
1685051974.3144379,-833.984375,799.8046875,-164.55078125,-943.84765625,0
1685051974.3181548,381.8359375,675.29296875,-104.98046875,-1000.0,0
1685051974.321872,-947.75390625,-749.51171875,-245.60546875,12.20703125,0
1685051974.325589,-1000.0,-1000.0,-198.2421875,529.78515625,0
1685051974.329306,-288.0859375,-773.4375,-157.71484375,-992.1875,0
1685051974.333023,-880.859375,578.61328125,-189.94140625,-973.14453125,0
1685051974.33674,594.23828125,898.92578125,-77.63671875,-1000.0,0
1685051974.340457,-794.921875,-508.30078125,-237.3046875,-105.95703125,0
1685051974.345283,-1000.0,-1000.0,-450.68359375,581.54296875,0
1685051974.350109,-368.65234375,-865.234375,-388.671875,-927.24609375,0
1685051974.354935,997.55859375,373.046875,-120.1171875,-994.140625,0
1685051974.359761,884.765625,-940.91796875,-29.78515625,-1000.0,0
1685051974.364587,-451.66015625,-253.41796875,-249.0234375,-209.9609375,0
1685051974.369413,-1000.0,-1000.0,-383.30078125,913.57421875,0
1685051974.374239,-467.28515625,-947.265625,-191.89453125,-541.50390625,0
1685051974.379065,872.0703125,181.640625,32.71484375,-1000.0,0
1685051974.383891,-919.43359375,-843.75,-10.7421875,-1000.0,0
1685051974.3887172,-119.140625,-34.66796875,-189.453125,-295.41015625,0
1685051974.393543,-1000.0,-1000.0,-299.8046875,-937.98828125,0
1685051974.398369,-611.81640625,-1000.0,-298.33984375,-244.140625,0
1685051974.4021738,733.88671875,35.64453125,-221.19140625,-1000.0,0
1685051974.4059782,-849.12109375,-811.03515625,-76.66015625,-1000.0,0
1685051974.409783,98.6328125,102.05078125,-140.625,-343.75,0
1685051974.4135873,-1000.0,-1000.0,-361.81640625,-870.60546875,0
1685051974.417392,-791.50390625,-1000.0,-390.13671875,26.3671875,0
1685051974.4211965,555.17578125,-70.80078125,-149.90234375,-1000.0,0
1685051974.4250011,-809.08203125,-808.59375,74.70703125,-1000.0,0
1685051974.4288058,159.1796875,227.5390625,-102.5390625,-422.36328125,0
1685051974.4326103,-1000.0,-1000.0,-399.90234375,-893.5546875,0
1685051974.436415,-978.515625,-1000.0,-355.46875,173.828125,0
1685051974.4402194,291.50390625,-156.73828125,-115.234375,-1000.0,0
1685051974.444024,-776.85546875,-831.0546875,-26.3671875,-1000.0,0
1685051974.4478364,142.08984375,374.51171875,-155.2734375,-510.25390625,0
1685051974.4516485,-1000.0,-910.64453125,-253.41796875,-953.125,0
1685051974.4554608,-1000.0,-1000.0,-267.08984375,219.7265625,0
1685051974.459273,51.7578125,-241.2109375,-249.51171875,-1000.0,0
1685051974.4630852,-771.97265625,-884.765625,-114.2578125,-1000.0,0
1685051974.4668975,307.6171875,545.8984375,-0.9765625,-390.13671875,0
1685051974.4707098,-963.37890625,-758.30078125,-145.99609375,-880.859375,0
1685051974.4745219,-1000.0,-1000.0,-386.71875,288.0859375,0
1685051974.4783342,-111.81640625,-321.2890625,-297.36328125,-1000.0,0
1685051974.4821465,-815.4296875,-959.47265625,-5.859375,-1000.0,0
1685051974.4859586,497.0703125,737.79296875,-6.8359375,-843.75,0
1685051974.489771,-865.72265625,-557.6171875,-294.921875,687.5,0
1685051974.4935753,-1000.0,-1000.0,-369.62890625,645.99609375,0
1685051974.4973795,-213.8671875,-418.9453125,-187.01171875,-893.06640625,0
1685051974.501184,-911.1328125,927.734375,-21.97265625,-1000.0,0
1685051974.5049882,768.5546875,909.1796875,-74.70703125,-941.40625,0
1685051974.5087926,-594.23828125,-339.35546875,-226.07421875,434.08203125,0
1685051974.512597,-1000.0,-1000.0,-256.8359375,892.578125,0
1685051974.5164013,-187.5,-556.640625,-229.98046875,-637.20703125,0
1685051974.5202057,-977.05078125,764.16015625,-147.4609375,-1000.0,0
1685051974.52401,980.95703125,-963.8671875,-44.43359375,-908.203125,0
1685051974.5278144,-260.7421875,-162.109375,-71.77734375,413.57421875,0
1685051974.5316186,-1000.0,-1000.0,-306.640625,-938.96484375,0
1685051974.535423,-172.8515625,-713.8671875,-366.69921875,-420.41015625,0
1685051974.5391636,999.0234375,559.5703125,-96.19140625,-1000.0,0
1685051974.5429041,-952.1484375,-868.1640625,-2.9296875,-1000.0,0
1685051974.5466447,-32.71484375,-15.13671875,-210.9375,-55.6640625,0
1685051974.5503855,-1000.0,-1000.0,-345.703125,-818.84765625,0
1685051974.554126,-332.03125,-867.67578125,-243.65234375,-97.16796875,0
1685051974.5578666,932.12890625,335.44921875,-8.30078125,-1000.0,0
1685051974.5616071,-907.2265625,-817.87109375,8.30078125,-1000.0,0
1685051974.5653477,140.13671875,89.84375,-209.9609375,-197.75390625,0
1685051974.5690885,-1000.0,-1000.0,-242.1875,-818.84765625,0
1685051974.572829,-522.4609375,-978.02734375,-165.0390625,74.70703125,0
1685051974.5765696,845.703125,129.8828125,-172.8515625,-1000.0,0
1685051974.58031,-869.62890625,-807.6171875,-20.99609375,-1000.0,0
1685051974.5840547,192.3828125,183.10546875,-85.9375,-219.23828125,0
1685051974.5877993,-1000.0,-1000.0,-339.35546875,-822.265625,0
1685051974.591544,-805.6640625,-1000.0,-401.85546875,165.52734375,0
1685051974.5952885,615.234375,-20.99609375,-213.37890625,-1000.0,0
1685051974.599033,-917.48046875,-915.0390625,-38.57421875,-1000.0,0
1685051974.6027775,-26.3671875,98.6328125,-86.9140625,-88.37890625,0
1685051974.606522,-1000.0,-957.03125,-257.32421875,-851.07421875,0
1685051974.6102667,-1000.0,-1000.0,-348.14453125,175.29296875,0
1685051974.6140113,221.19140625,-192.87109375,-35.64453125,-1000.0,0
1685051974.617756,-770.01953125,-842.7734375,105.95703125,-1000.0,0
1685051974.6215005,174.31640625,406.73828125,-183.59375,-436.03515625,0
1685051974.625245,-1000.0,-885.25390625,-344.23828125,-904.296875,0
1685051974.6302435,-1000.0,-1000.0,-392.578125,267.08984375,0
1685051974.635242,-14.6484375,-285.64453125,-312.01171875,-1000.0,0
1685051974.6402407,-780.2734375,-903.3203125,-156.25,-1000.0,0
1685051974.645239,321.77734375,561.03515625,-134.27734375,-524.4140625,0
1685051974.6502376,-952.1484375,-750.9765625,-293.45703125,-974.12109375,0
1685051974.655236,-1000.0,-1000.0,-370.1171875,457.03125,0
1685051974.6602345,-206.54296875,-401.3671875,-249.0234375,-964.35546875,0
1685051974.665233,-837.890625,993.65234375,37.109375,-1000.0,0
1685051974.6702313,506.8359375,742.67578125,135.25390625,-909.1796875,0
1685051974.67523,-874.0234375,-580.56640625,-261.23046875,569.3359375,0
1685051974.6802285,-1000.0,-1000.0,-456.0546875,664.0625,0
1685051974.685227,-224.609375,-524.90234375,-291.50390625,-899.4140625,0
1685051974.6877406,-910.15625,837.890625,-135.25390625,-1000.0,0
1685051974.6902542,757.32421875,918.45703125,-149.4140625,-1000.0,0
1685051974.6927679,-611.81640625,-376.953125,-281.73828125,246.09375,0
1685051974.6952815,-1000.0,-1000.0,-399.90234375,866.69921875,0
1685051974.6977952,-191.40625,-683.10546875,-363.28125,-685.546875,0
1685051974.7003088,-970.21484375,620.60546875,-134.765625,-1000.0,0
1685051974.7028227,956.54296875,-943.84765625,-11.71875,-1000.0,0
1685051974.7053363,-317.87109375,-195.80078125,-165.0390625,236.328125,0
1685051974.70785,-1000.0,-1000.0,-397.4609375,-987.3046875,0
1685051974.7103636,-197.265625,-813.4765625,-381.34765625,-519.04296875,0
1685051974.7128773,950.1953125,384.27734375,-131.34765625,-1000.0,0
1685051974.715391,-945.3125,-854.4921875,143.06640625,-1000.0,0
1685051974.7191432,-66.89453125,-38.57421875,-87.40234375,-209.9609375,0
1685051974.7228951,-1000.0,-1000.0,-456.0546875,-864.2578125,0
1685051974.7266474,-472.65625,-963.37890625,-363.28125,-139.6484375,0
1685051974.7303996,861.328125,153.80859375,-174.31640625,-1000.0,0
1685051974.7341518,-884.27734375,-813.96484375,-115.72265625,-1000.0,0
1685051974.737904,75.68359375,69.3359375,-206.0546875,-258.7890625,0
1685051974.741656,-1000.0,-1000.0,-241.2109375,-829.1015625,0
1685051974.7454083,-705.078125,-1000.0,-218.75,83.984375,0
1685051974.7491605,652.83203125,-30.76171875,-236.81640625,-1000.0,0
1685051974.7529125,-825.68359375,-807.12890625,-127.9296875,-1000.0,0
1685051974.7566648,165.52734375,166.50390625,-174.8046875,-286.1328125,0
1685051974.760417,-1000.0,-1000.0,-366.69921875,-837.40234375,0
1685051974.7652497,-949.70703125,-1000.0,-404.78515625,151.85546875,0
1685051974.7700827,340.33203125,-161.62109375,-242.67578125,-1000.0,0
1685051974.7749155,-780.76171875,-818.359375,-38.0859375,-1000.0,0
1685051974.7797484,139.6484375,264.6484375,-128.41796875,-461.9140625,0
1685051974.7845812,-1000.0,-982.91015625,-389.6484375,-919.921875,0
1685051974.789414,-1000.0,-1000.0,-383.30078125,207.03125,0
1685051974.794247,36.62109375,-285.64453125,-119.62890625,-1000.0,0
1685051974.7990797,-772.94921875,-866.2109375,-37.59765625,-1000.0,0
1685051974.8039126,149.4140625,388.671875,-222.65625,-662.59765625,0
1685051974.8087454,-1000.0,-912.59765625,-361.328125,921.875,0
1685051974.8135784,-1000.0,-1000.0,-409.66796875,285.15625,0
1685051974.818411,-173.33984375,-393.06640625,-345.21484375,-1000.0,0
1685051974.822382,-807.6171875,-950.1953125,-198.2421875,-1000.0,0
1685051974.8263528,314.94140625,557.12890625,-154.78515625,-752.9296875,0
1685051974.8303237,-970.21484375,-787.109375,-282.2265625,809.5703125,0
1685051974.8342943,-1000.0,-1000.0,-423.828125,424.31640625,0
1685051974.8382652,-255.37109375,-515.13671875,-394.04296875,-1000.0,0
1685051974.842236,-847.65625,902.83203125,-60.546875,-969.7265625,0
1685051974.846207,495.60546875,753.41796875,107.421875,-1000.0,0
1685051974.8501778,-888.18359375,-613.76953125,-264.16015625,246.58203125,0
1685051974.8541484,-1000.0,-1000.0,-463.8671875,624.51171875,0
1685051974.8581192,-228.515625,-662.109375,-324.21875,-953.61328125,0
1685051974.86209,-900.87890625,693.359375,-153.80859375,-985.3515625,1
1685051974.866061,722.65625,935.05859375,-153.3203125,-1000.0,0
1685051974.8697574,-646.484375,-412.109375,-307.6171875,-6.34765625,0
1685051974.8734536,-1000.0,-1000.0,-409.1796875,784.66796875,0
1685051974.87715,-256.8359375,-807.12890625,-374.0234375,-755.37109375,0
1685051974.8808463,-985.3515625,458.0078125,-212.890625,-1000.0,0
1685051974.8845427,939.453125,-928.22265625,-96.6796875,-1000.0,0
1685051974.888239,-326.66015625,-208.0078125,-168.9453125,-11.23046875,0
1685051974.8919353,-1000.0,-1000.0,-319.3359375,-929.19921875,0
1685051974.8956318,-406.25,-919.43359375,-375.9765625,-387.20703125,0
1685051974.899328,906.73828125,239.74609375,-198.2421875,-1000.0,0
1685051974.9030244,-927.24609375,-845.21484375,109.375,-1000.0,0
1685051974.9067206,-90.8203125,-35.64453125,-93.75,-260.7421875,0
1685051974.910417,-1000.0,-1000.0,-469.7265625,-909.66796875,0
1685051974.9141662,-594.23828125,-1000.0,-411.1328125,-214.84375,0
1685051974.9179153,758.30078125,35.15625,-178.7109375,-1000.0,0
1685051974.9216642,-854.4921875,-811.5234375,-104.4921875,-1000.0,0
1685051974.9254134,74.21875,83.0078125,-248.046875,-374.51171875,0
1685051974.9291625,-1000.0,-1000.0,-364.74609375,-879.39453125,0
1685051974.9329114,-844.23828125,-1000.0,-329.1015625,65.91796875,0
1685051974.9366605,473.14453125,-110.3515625,-199.70703125,-1000.0,0
1685051974.9404097,-796.875,-809.5703125,-80.078125,-1000.0,0
1685051974.9441588,150.87890625,183.59375,-42.48046875,-303.22265625,0
1685051974.947908,-1000.0,-1000.0,-142.08984375,-845.703125,0
1685051974.9516568,-1000.0,-1000.0,-398.92578125,124.0234375,0
1685051974.955406,190.91796875,-212.40234375,-313.96484375,-1000.0,0
1685051974.959221,-769.53125,-830.078125,-83.49609375,-1000.0,0
1685051974.9630356,138.18359375,301.7578125,-154.78515625,-677.24609375,0
1685051974.9668505,-1000.0,-965.8203125,-416.015625,904.296875,0
1685051974.9706652,-1000.0,-1000.0,-441.89453125,237.79296875,0
1685051974.9744802,-27.83203125,-314.453125,-226.5625,-1000.0,0
1685051974.9782948,-779.78515625,-886.71875,-40.0390625,-1000.0,0
1685051974.9821098,193.359375,445.80078125,-116.2109375,-864.2578125,0
1685051974.9859247,-1000.0,-871.09375,-343.26171875,688.4765625,0
1685051974.9897394,-1000.0,-1000.0,-287.109375,414.0625,0
1685051974.9935544,-225.09765625,-427.734375,-185.05859375,-1000.0,0
1685051974.997369,-825.68359375,-989.74609375,-139.6484375,-1000.0,0
1685051975.001184,389.6484375,625.48828125,-66.89453125,-796.38671875,0
1685051975.0049298,-941.89453125,-729.4921875,-210.9375,772.4609375,0
1685051975.0086756,-1000.0,-1000.0,-441.40625,473.14453125,0
1685051975.0124216,-246.58203125,-544.43359375,-363.28125,-1000.0,0
1685051975.0161674,-865.234375,853.02734375,-123.53515625,-982.91015625,0
1685051975.0199132,583.0078125,826.66015625,-73.73046875,-1000.0,0
1685051975.023659,-812.01171875,-529.78515625,-235.83984375,284.66796875,0
1685051975.0274048,-1000.0,-1000.0,-389.16015625,707.03125,0
1685051975.0311506,-214.84375,-704.58984375,-224.12109375,-893.5546875,0
1685051975.0348964,-926.7578125,619.140625,29.296875,-994.140625,0
1685051975.0386424,810.546875,996.58203125,-115.72265625,-1000.0,0
1685051975.0423882,-520.99609375,-316.40625,-303.7109375,-99.12109375,0
1685051975.046134,-1000.0,-1000.0,-340.33203125,864.74609375,0
1685051975.0498297,-301.7578125,-836.42578125,-320.3125,-630.37109375,0
1685051975.0535254,976.07421875,400.87890625,-231.4453125,-1000.0,0
1685051975.0572212,-996.09375,-889.6484375,-130.37109375,-1000.0,0
1685051975.060917,-225.09765625,-134.27734375,-183.10546875,-125.9765625,0
1685051975.0646126,-1000.0,-1000.0,-360.83984375,-958.984375,0
1685051975.0683084,-454.58984375,-953.125,-366.2109375,-388.671875,0
1685051975.0720043,875.0,169.921875,-132.8125,-1000.0,0
1685051975.0757,-903.3203125,-828.125,79.1015625,-1000.0,0
1685051975.0793958,-36.62109375,13.18359375,-106.4453125,-324.21875,0
1685051975.0830915,-1000.0,-1000.0,-432.6171875,-944.3359375,0
1685051975.0867872,-683.10546875,-1000.0,-385.7421875,-206.0546875,0
1685051975.090483,716.796875,24.4140625,-187.01171875,-1000.0,0
1685051975.0943425,-937.5,-913.57421875,-136.71875,-975.5859375,0
1685051975.0982022,-60.546875,-68.359375,-240.72265625,-358.3984375,0
1685051975.1020617,-1000.0,-1000.0,-285.64453125,-998.53515625,0
1685051975.1059213,-923.828125,-1000.0,-308.10546875,-2.44140625,0
1685051975.1097808,360.83984375,-156.73828125,-272.4609375,-1000.0,0
1685051975.1136403,-782.2265625,-813.96484375,-78.125,-1000.0,0
1685051975.1175,140.625,202.1484375,10.25390625,-494.140625,0
1685051975.1213596,-1000.0,-1000.0,-185.05859375,-948.73046875,0
1685051975.125219,-1000.0,-1000.0,-437.5,103.515625,0
1685051975.1290789,54.6875,-273.92578125,-306.15234375,-1000.0,0
1685051975.1329384,-771.484375,-850.09765625,-78.61328125,-946.77734375,0
1685051975.136798,138.18359375,316.89453125,-148.92578125,-1000.0,0
1685051975.1415095,-1000.0,-962.40234375,-403.3203125,308.10546875,0
1685051975.1462212,-1000.0,-1000.0,-444.3359375,272.4609375,0
1685051975.1509328,-163.57421875,-391.6015625,-267.578125,-1000.0,0
1685051975.1556447,-805.17578125,-925.29296875,-104.00390625,-937.5,0
1685051975.1603563,207.51953125,457.51953125,-84.47265625,-1000.0,0
1685051975.165068,-1000.0,-881.8359375,-265.13671875,99.609375,0
1685051975.1697795,-1000.0,-1000.0,-212.890625,318.84765625,0
1685051975.1744912,-262.6953125,-523.4375,-109.86328125,-1000.0,0
1685051975.179203,-834.9609375,929.6875,-157.71484375,-938.96484375,0
1685051975.1839147,387.20703125,643.5546875,-126.46484375,-1000.0,0
1685051975.1886263,-948.73046875,-743.1640625,-280.76171875,-83.984375,0
1685051975.193338,-1000.0,-1000.0,-464.84375,268.06640625,0
1685051975.197185,-247.0703125,-660.64453125,-381.8359375,-1000.0,0
1685051975.2010322,-867.1875,723.14453125,-122.0703125,-940.4296875,0
1685051975.2048793,592.7734375,862.79296875,-91.796875,-1000.0,0
1685051975.2087262,-798.828125,-520.01953125,-314.453125,-165.52734375,0
1685051975.2125733,-1000.0,-1000.0,-462.40234375,314.453125,0
1685051975.2164204,-241.2109375,-770.99609375,-239.2578125,-1000.0,0
1685051975.2202675,-959.47265625,513.671875,71.2890625,-946.2890625,0
1685051975.2241147,886.23046875,-951.171875,-12.20703125,-1000.0,0
1685051975.2279615,-420.8984375,-233.3984375,-279.296875,-331.54296875,0
1685051975.2318087,-1000.0,-1000.0,-311.03515625,619.140625,0
1685051975.2356558,-290.0390625,-828.61328125,-238.28125,-787.59765625,0
1685051975.239503,951.66015625,394.53125,-220.703125,-1000.0,0
1685051975.2433476,-938.4765625,-851.5625,-112.79296875,-1000.0,0
1685051975.2471924,-52.24609375,-21.97265625,-206.0546875,-435.05859375,0
1685051975.2510371,-1000.0,-1000.0,-416.50390625,666.015625,0
1685051975.2548819,-416.50390625,-919.43359375,-435.05859375,-660.64453125,0
1685051975.2587266,885.7421875,233.3984375,-211.9140625,-1000.0,0
1685051975.2625713,-887.6953125,-812.98828125,0.9765625,-1000.0,0
1685051975.2664163,166.9921875,108.88671875,-142.08984375,-574.70703125,0
1685051975.270261,-1000.0,-1000.0,-431.15234375,893.06640625,0
1685051975.2741058,-615.234375,-1000.0,-407.2265625,-209.9609375,0
1685051975.2779505,770.5078125,41.50390625,-23.92578125,-1000.0,0
1685051975.2817953,-849.609375,-806.640625,35.15625,-1000.0,0
1685051975.28564,177.24609375,198.73046875,-256.34765625,-677.24609375,0
1685051975.2894406,-1000.0,-1000.0,-385.25390625,906.73828125,0
1685051975.2932413,-888.671875,-1000.0,-392.578125,101.5625,0
1685051975.297042,438.4765625,-108.3984375,-314.453125,-1000.0,0
1685051975.3008423,-791.50390625,-814.94140625,-178.7109375,-1000.0,0
1685051975.304643,142.578125,286.1328125,-177.734375,-520.5078125,0
1685051975.3084435,-1000.0,-967.7734375,-291.9921875,-960.44921875,0
1685051975.3122442,-1000.0,-1000.0,-381.34765625,205.078125,0
1685051975.3160448,84.9609375,-247.0703125,-363.76953125,-1000.0,0
1685051975.3198452,-767.578125,-857.91015625,-58.10546875,-1000.0,0
1685051975.3236458,159.66796875,407.2265625,-7.32421875,-735.83984375,0
1685051975.3274465,-1000.0,-890.625,-392.08984375,846.19140625,0
1685051975.331247,-1000.0,-1000.0,-465.33203125,332.03125,0
1685051975.3349261,-153.80859375,-380.859375,-261.23046875,-1000.0,0
1685051975.3386052,-803.7109375,-939.94140625,-124.51171875,-1000.0,0
1685051975.3422842,291.9921875,540.52734375,-207.51953125,-782.71484375,0
1685051975.3459635,-977.5390625,-804.19921875,-388.18359375,787.59765625,0
1685051975.3496425,-1000.0,-1000.0,-458.49609375,515.625,0
1685051975.3533216,-256.34765625,-563.96484375,-308.10546875,-958.984375,0
1685051975.3570006,-838.8671875,881.34765625,-154.296875,-1000.0,0
1685051975.3606796,410.15625,681.640625,-165.0390625,-804.6875,0
1685051975.364359,-932.12890625,-727.05078125,-162.59765625,704.58984375,0
1685051975.368038,-1000.0,-1000.0,-351.07421875,742.1875,0
1685051975.371717,-309.08203125,-816.89453125,-468.26171875,-803.7109375,0
1685051975.375396,-870.60546875,566.40625,-212.890625,-1000.0,0
1685051975.3792655,492.1875,789.0625,-155.76171875,-991.2109375,0
1685051975.383135,-880.859375,-696.77734375,-353.02734375,272.94921875,0
1685051975.3870049,-1000.0,-1000.0,-510.25390625,950.1953125,0
1685051975.3908744,-573.73046875,-989.2578125,-391.6015625,-578.125,0
1685051975.394744,963.37890625,199.21875,-141.6015625,-1000.0,0
1685051975.3986135,696.2890625,964.35546875,-118.1640625,-1000.0,0
1685051975.402483,-775.87890625,-463.8671875,-295.41015625,-36.62109375,0
1685051975.4063525,-1000.0,-1000.0,-366.2109375,-836.42578125,0
1685051975.410222,-768.5546875,-1000.0,-270.01953125,-171.875,0
1685051975.4140918,648.92578125,-2.44140625,-265.625,-1000.0,0
1685051975.4179614,998.046875,-907.2265625,-195.80078125,-1000.0,0
1685051975.421831,-459.47265625,-206.54296875,-274.4140625,-199.21875,0
1685051975.4254541,-1000.0,-1000.0,-467.28515625,-851.07421875,0
1685051975.4290776,-892.578125,-1000.0,-485.3515625,-99.609375,0
1685051975.4327009,383.7890625,-115.72265625,-265.625,-1000.0,0
1685051975.4363244,-822.75390625,-837.890625,-63.4765625,-1000.0,0
1685051975.4399476,-166.015625,-12.20703125,-182.12890625,-290.52734375,0
1685051975.443571,-1000.0,-1000.0,-383.7890625,-835.9375,0
1685051975.4471943,-1000.0,-1000.0,-413.0859375,116.2109375,0
1685051975.4508176,108.88671875,-223.14453125,-73.2421875,-1000.0,0
1685051975.454441,-771.97265625,-829.1015625,68.84765625,-1000.0,0
1685051975.4580643,32.2265625,112.3046875,-256.34765625,-414.55078125,0
1685051975.4616878,-1000.0,-1000.0,-410.64453125,-896.97265625,0
1685051975.465311,-1000.0,-1000.0,-420.8984375,159.66796875,0
1685051975.4690773,-80.078125,-320.80078125,-325.68359375,-1000.0,0
1685051975.4728436,-786.1328125,-857.91015625,-196.2890625,-1000.0,0
1685051975.4766102,146.97265625,217.7734375,-189.94140625,-552.734375,0
1685051975.4803765,-1000.0,-1000.0,-368.1640625,-986.81640625,0
1685051975.4841428,-1000.0,-1000.0,-476.5625,210.44921875,0
1685051975.487909,-229.00390625,-429.6875,-292.48046875,-1000.0,0
1685051975.4916754,-822.75390625,-924.31640625,15.13671875,-996.09375,0
1685051975.4954417,166.50390625,348.14453125,72.75390625,-960.9375,0
1685051975.499208,-1000.0,-973.14453125,-327.63671875,533.69140625,0
1685051975.5029745,-1000.0,-1000.0,-494.62890625,311.03515625,0
1685051975.5067408,-259.765625,-551.7578125,-302.734375,-1000.0,0
1685051975.510507,-829.1015625,939.94140625,-137.6953125,-939.94140625,0
1685051975.515382,232.421875,528.80859375,-194.82421875,-1000.0,0
1685051975.520257,-1000.0,-865.234375,-368.65234375,143.5546875,0
1685051975.5251317,-1000.0,-1000.0,-415.52734375,375.48828125,0
1685051975.5300066,-262.20703125,-699.21875,-352.05078125,-1000.0,0
1685051975.5348816,-836.42578125,730.95703125,-177.734375,-974.609375,0
1685051975.5397565,396.484375,723.14453125,-79.1015625,-1000.0,0
1685051975.5446315,-932.6171875,-715.8203125,-125.48828125,223.6328125,0
1685051975.5495064,-1000.0,-1000.0,-310.546875,504.39453125,0
1685051975.5543814,-393.06640625,-847.16796875,-343.75,-1000.0,0
1685051975.559256,-917.96875,472.65625,-78.125,-946.2890625,0
1685051975.564131,585.9375,917.48046875,3.41796875,-1000.0,0
1685051975.569006,-819.82421875,-513.18359375,-256.34765625,-137.20703125,0
1685051975.5728266,-1000.0,-1000.0,-447.265625,586.9140625,0
1685051975.5766475,-559.08203125,-962.40234375,-340.8203125,-918.45703125,0
1685051975.5804682,922.36328125,204.58984375,-127.9296875,-993.65234375,0
1685051975.584289,841.30859375,-948.2421875,-105.46875,-1000.0,0
1685051975.5881097,-593.26171875,-295.41015625,-276.85546875,-333.0078125,0
1685051975.5919304,-1000.0,-1000.0,-281.25,867.67578125,0
1685051975.5957513,-753.41796875,-1000.0,-212.40234375,-523.4375,0
1685051975.599572,620.1171875,7.32421875,-193.359375,-1000.0,0
1685051975.6033928,-910.64453125,-862.79296875,-101.07421875,-1000.0,0
1685051975.6072135,-306.640625,-99.12109375,-118.65234375,-294.43359375,0
1685051975.6110344,-1000.0,-1000.0,-250.9765625,-978.02734375,0
1685051975.614855,-937.98828125,-1000.0,-339.35546875,-323.2421875,0
1685051975.6186576,296.875,-127.9296875,-211.42578125,-1000.0,0
1685051975.6224601,-799.31640625,-823.73046875,-8.30078125,-1000.0,0
1685051975.6262627,-99.609375,44.921875,-110.3515625,-650.87890625,0
1685051975.630065,-1000.0,-1000.0,-376.953125,893.5546875,0
1685051975.6338675,-1000.0,-1000.0,-383.7890625,-40.0390625,0
1685051975.63767,36.1328125,-240.72265625,-125.0,-1000.0,0
1685051975.6414726,-770.99609375,-831.54296875,31.73828125,-1000.0,0
1685051975.645275,100.5859375,157.2265625,-134.27734375,-728.515625,0
1685051975.6490774,-1000.0,-1000.0,-302.734375,867.1875,0
1685051975.65288,-1000.0,-1000.0,-248.53515625,238.28125,0
1685051975.6566825,-105.95703125,-329.58984375,-179.6875,-1000.0,0
1685051975.660485,-792.96875,-864.2578125,-104.98046875,-1000.0,0
1685051975.6642394,151.3671875,279.78515625,-69.3359375,-594.7265625,0
1685051975.6679938,-1000.0,-993.1640625,-221.19140625,992.67578125,0
1685051975.6717482,-1000.0,-1000.0,-369.62890625,231.4453125,0
1685051975.6755028,-227.05078125,-405.76171875,-274.90234375,-1000.0,0
1685051975.6792572,-821.2890625,-932.12890625,14.6484375,-1000.0,0
1685051975.6830115,188.4765625,463.8671875,112.3046875,-699.70703125,0
1685051975.686766,-1000.0,-876.953125,-189.94140625,891.11328125,0
1685051975.6905203,-1000.0,-1000.0,-380.859375,422.8515625,0
1685051975.694275,-265.625,-473.14453125,-115.234375,-994.62890625,0
1685051975.6980293,-836.9140625,950.68359375,159.66796875,-1000.0,0
1685051975.7017837,427.734375,721.6796875,-24.90234375,-788.57421875,0
1685051975.705538,-928.22265625,-628.90625,-249.51171875,718.26171875,0
1685051975.709263,-1000.0,-1000.0,-316.40625,756.8359375,0
1685051975.712988,-234.375,-516.6015625,-253.90625,-745.1171875,0
1685051975.716713,-899.4140625,840.33203125,-82.51953125,-1000.0,0
1685051975.720438,723.14453125,925.78125,20.01953125,-703.125,0
1685051975.724163,-653.3203125,-354.4921875,-105.46875,660.64453125,0
1685051975.727888,-1000.0,-1000.0,-224.12109375,-928.22265625,0
1685051975.731613,-185.546875,-595.21484375,-223.14453125,-263.671875,0
1685051975.735338,-985.3515625,704.1015625,-70.3125,-1000.0,0
1685051975.739063,998.046875,-922.36328125,157.71484375,-764.6484375,0
1685051975.7427878,-215.33203125,-89.84375,-61.03515625,531.73828125,0
1685051975.746513,-1000.0,-1000.0,-360.3515625,-826.171875,0
1685051975.750238,-203.125,-723.6328125,-236.328125,19.53125,0
1685051975.7540271,978.515625,540.0390625,-1.953125,-1000.0,0
1685051975.757816,-931.15234375,-846.6796875,10.7421875,-880.859375,0
1685051975.7616053,54.19921875,59.08203125,-162.109375,392.08984375,0
1685051975.7653942,-1000.0,-1000.0,-270.5078125,-792.96875,0
1685051975.7691834,-334.9609375,-840.8203125,-231.4453125,143.06640625,0
1685051975.7729726,932.6171875,375.48828125,-35.15625,-1000.0,0
1685051975.7767615,-901.3671875,-816.89453125,83.984375,-986.81640625,0
1685051975.7805507,215.8203125,171.875,51.7578125,247.55859375,0
1685051975.7843397,-1000.0,-1000.0,-40.52734375,-777.34375,0
1685051975.7881289,-488.76953125,-945.80078125,-231.93359375,139.6484375,0
1685051975.7919178,877.9296875,211.9140625,-136.23046875,-1000.0,0
1685051975.795707,-881.34765625,-814.94140625,43.9453125,-1000.0,0
1685051975.7994275,207.03125,311.5234375,-78.61328125,-35.15625,0
1685051975.8031478,-1000.0,-977.05078125,-302.24609375,-787.59765625,0
1685051975.8068683,-642.08984375,-1000.0,-299.31640625,254.8828125,0
1685051975.8105886,741.2109375,61.5234375,-116.69921875,-996.58203125,0
1685051975.8143091,-846.6796875,-840.8203125,16.11328125,-1000.0,0
1685051975.8180294,295.41015625,474.609375,-22.4609375,-107.91015625,0
1685051975.82175,-1000.0,-827.1484375,-190.4296875,-823.2421875,0
1685051975.8254704,-830.078125,-1000.0,-130.37109375,519.53125,0
1685051975.8291907,528.3203125,-41.50390625,-28.3203125,-839.35546875,0
1685051975.8329113,-821.2890625,-876.953125,-49.31640625,-1000.0,0
1685051975.8366315,463.8671875,646.484375,-20.01953125,-177.24609375,0
1685051975.840352,-919.921875,-629.8828125,-124.51171875,-897.4609375,0
1685051975.8453722,-1000.0,-1000.0,-309.08203125,744.140625,0
1685051975.8503923,261.23046875,-133.30078125,-241.69921875,-607.421875,0
1685051975.8554122,-841.30859375,-924.8046875,-0.48828125,-1000.0,0
1685051975.8604324,689.94140625,811.03515625,-11.23046875,-172.8515625,0
1685051975.8654525,-651.85546875,-402.83203125,-243.1640625,-984.375,0
1685051975.8704724,-1000.0,-1000.0,-305.6640625,-998.53515625,0
1685051975.8754926,69.82421875,-241.2109375,-67.3828125,-184.5703125,0
1685051975.8805127,-901.3671875,-983.88671875,152.34375,-1000.0,0
1685051975.8855329,883.30078125,927.734375,-20.99609375,-189.94140625,0
1685051975.890553,-362.3046875,-224.12109375,-247.55859375,-999.51171875,0
1685051975.895573,-1000.0,-1000.0,-308.10546875,-952.63671875,0
1685051975.900593,-125.48828125,-370.60546875,-250.0,-33.203125,0
1685051975.9042277,-971.19140625,932.12890625,-119.140625,-1000.0,0
1685051975.9078627,-991.69921875,-988.28125,-33.203125,-319.82421875,0
1685051975.9114974,-171.875,-112.3046875,-146.97265625,942.87109375,0
1685051975.915132,-1000.0,-1000.0,-347.16796875,-916.50390625,0
1685051975.9187667,-176.26953125,-569.3359375,-345.21484375,78.125,0
1685051975.9224014,-998.046875,731.93359375,-69.3359375,-1000.0,0
1685051975.9260364,-945.80078125,-897.4609375,58.59375,-639.6484375,0
1685051975.929671,-32.2265625,-13.18359375,-179.6875,718.75,0
1685051975.9333057,-1000.0,-1000.0,-407.71484375,-843.75,0
1685051975.9369407,-226.07421875,-786.62109375,-322.75390625,83.984375,0
1685051975.9405754,981.4453125,462.40234375,-7.32421875,-1000.0,0
1685051975.94421,-930.6640625,-836.9140625,17.578125,-1000.0,0
1685051975.947947,85.44921875,44.921875,-189.453125,197.265625,0
1685051975.951684,-1000.0,-1000.0,-263.671875,-779.78515625,0
1685051975.955421,-474.609375,-964.84375,-255.37109375,103.02734375,0
1685051975.959158,891.6015625,191.89453125,-192.3828125,-1000.0,0
1685051975.962895,-936.5234375,-866.69921875,-81.54296875,-1000.0,0
1685051975.966632,68.84765625,16.11328125,-61.03515625,-43.45703125,0
1685051975.970369,-1000.0,-1000.0,-223.14453125,-813.4765625,0
1685051975.974106,-796.875,-1000.0,-393.06640625,138.671875,0
1685051975.977843,558.10546875,-84.47265625,-248.046875,-1000.0,0
1685051975.98158,-807.12890625,-809.08203125,16.11328125,-1000.0,0
1685051975.985317,145.5078125,167.96875,-77.63671875,-282.71484375,0
1685051975.989054,-1000.0,-1000.0,-395.01953125,-837.890625,0
1685051975.993039,-1000.0,-1000.0,-426.26953125,165.52734375,0
1685051975.9970238,110.83984375,-247.55859375,-241.69921875,-1000.0,0
1685051976.0010087,-767.578125,-835.9375,-57.6171875,-1000.0,0
1685051976.0049937,132.8125,244.140625,-130.37109375,-480.95703125,0
1685051976.0089786,-1000.0,-997.0703125,-371.09375,-930.6640625,0
1685051976.0129635,-1000.0,-1000.0,-258.7890625,284.1796875,0
1685051976.0169485,-173.828125,-407.71484375,-120.1171875,-1000.0,0
1685051976.0209334,-809.5703125,-913.57421875,-144.04296875,-1000.0,0
1685051976.0249183,158.69140625,341.796875,-134.765625,-695.80078125,0
1685051976.0289032,-1000.0,-975.5859375,-260.25390625,892.08984375,0
1685051976.0328882,-1000.0,-1000.0,-431.15234375,316.89453125,0
1685051976.036873,-257.32421875,-608.3984375,-376.953125,-1000.0,0
1685051976.0405095,-829.58984375,899.90234375,-136.23046875,-977.5390625,0
1685051976.0441458,187.5,463.37890625,-111.328125,-1000.0,0
1685051976.047782,-1000.0,-944.3359375,-367.67578125,401.3671875,0
1685051976.0514183,-1000.0,-1000.0,-502.9296875,461.42578125,0
1685051976.0550547,-336.42578125,-839.84375,-312.01171875,-1000.0,0
1685051976.058691,-855.95703125,594.7265625,-48.828125,-965.33203125,0
1685051976.0623274,320.3125,628.41796875,-47.8515625,-1000.0,0
1685051976.0659637,-974.609375,-857.421875,-265.625,129.39453125,0
1685051976.0696,-1000.0,-1000.0,-302.24609375,798.33984375,0
1685051976.0732362,-546.38671875,-973.14453125,-115.72265625,-782.71484375,0
1685051976.0768726,-973.14453125,309.5703125,-125.0,-1000.0,0
1685051976.080509,519.04296875,819.3359375,-145.99609375,-1000.0,0
1685051976.0842447,-913.57421875,-669.43359375,-249.0234375,-71.2890625,0
1685051976.0879803,-1000.0,-1000.0,-423.828125,758.7890625,0
1685051976.0917158,-672.8515625,-1000.0,-401.3671875,-777.83203125,0
1685051976.0954516,843.26171875,104.00390625,-188.4765625,-1000.0,0
1685051976.0991874,803.22265625,998.53515625,-74.21875,-1000.0,0
1685051976.102923,-685.546875,-406.73828125,-172.8515625,-169.43359375,0
1685051976.1066585,-1000.0,-1000.0,-371.09375,981.4453125,0
1685051976.1103942,-822.265625,-1000.0,-379.39453125,-466.796875,0
1685051976.11413,531.25,-65.4296875,35.15625,-1000.0,0
1685051976.1178656,-904.78515625,-876.46484375,108.3984375,-1000.0,0
1685051976.121601,-321.2890625,-127.44140625,-248.046875,-312.98828125,0
1685051976.125337,-1000.0,-1000.0,-364.74609375,-894.53125,0
1685051976.1291203,-941.89453125,-1000.0,-355.46875,-125.9765625,0
1685051976.1329038,288.0859375,-150.390625,-254.39453125,-1000.0,0
1685051976.1366873,-799.31640625,-828.125,-138.671875,-1000.0,0
1685051976.140471,-87.40234375,38.57421875,-170.8984375,-324.21875,0
1685051976.1442544,-1000.0,-1000.0,-335.44921875,-847.65625,0
1685051976.148038,-1000.0,-1000.0,-370.60546875,116.69921875,0
1685051976.1518214,116.2109375,-225.09765625,-190.91796875,-1000.0,0
1685051976.1556048,-765.13671875,-826.66015625,57.12890625,-1000.0,0
1685051976.1593885,134.765625,174.31640625,13.18359375,-425.78125,0
1685051976.163172,-1000.0,-1000.0,-327.1484375,-898.4375,0
1685051976.1669555,-1000.0,-1000.0,-380.859375,189.453125,0
1685051976.170739,-5.859375,-296.875,-173.33984375,-1000.0,0
1685051976.174577,-778.3203125,-856.93359375,-45.8984375,-1000.0,0
1685051976.1784148,146.97265625,325.68359375,-195.80078125,-524.90234375,0
1685051976.182253,-1000.0,-961.9140625,-367.67578125,-959.9609375,0
1685051976.186091,-1000.0,-1000.0,-377.44140625,251.46484375,0
1685051976.189929,-117.1875,-349.609375,-255.37109375,-1000.0,0
1685051976.193767,-794.43359375,-911.1328125,-54.6875,-1000.0,0
1685051976.197605,237.3046875,500.9765625,-48.33984375,-589.84375,0
1685051976.201443,-992.67578125,-828.61328125,-160.64453125,982.91015625,0
1685051976.205281,-1000.0,-1000.0,-291.50390625,443.359375,0
1685051976.2091188,-203.61328125,-418.9453125,-326.171875,-987.79296875,0
1685051976.212957,-943.359375,959.9609375,-108.3984375,-1000.0,0
1685051976.216795,295.8984375,688.4765625,-28.3203125,-588.37890625,0
1685051976.220526,-877.9296875,-607.421875,-224.609375,820.80078125,0
1685051976.2242572,-1000.0,-1000.0,-429.6875,702.63671875,0
1685051976.2279882,-234.86328125,-536.62109375,-275.87890625,-786.62109375,0
1685051976.2317193,-903.3203125,825.1953125,-8.30078125,-1000.0,0
1685051976.2354505,735.3515625,919.921875,-75.1953125,-812.5,0
1685051976.2391815,-638.671875,-375.48828125,-258.30078125,508.7890625,0
1685051976.2429125,-1000.0,-1000.0,-249.51171875,-881.8359375,0
1685051976.2466438,-188.4765625,-644.04296875,-77.1484375,-225.09765625,0
1685051976.2503748,-978.02734375,661.1328125,-63.4765625,-1000.0,0
1685051976.2541058,979.00390625,-937.98828125,-108.88671875,-899.4140625,0
1685051976.257837,-255.859375,-148.4375,-201.66015625,368.1640625,0
1685051976.261568,-1000.0,-1000.0,-353.515625,-829.58984375,0
1685051976.265336,-224.609375,-769.53125,-389.16015625,-137.6953125,0
1685051976.269104,974.12109375,480.46875,-172.36328125,-1000.0,0
1685051976.272872,-936.03515625,-847.16796875,-7.32421875,-999.0234375,0
1685051976.27664,13.18359375,20.01953125,-201.171875,136.23046875,0
1685051976.280408,-1000.0,-1000.0,-414.0625,-776.85546875,0
1685051976.2841759,-382.32421875,-891.6015625,-345.21484375,96.6796875,0
1685051976.287944,907.71484375,286.62109375,18.06640625,-1000.0,0
1685051976.291712,-894.53125,-814.453125,105.46875,-1000.0,0
1685051976.29548,187.98828125,129.8828125,-227.5390625,-25.87890625,0
1685051976.299248,-1000.0,-1000.0,-379.8828125,-785.64453125,0
1685051976.303016,-565.4296875,-996.58203125,-360.3515625,146.484375,0
1685051976.306784,822.265625,97.65625,-237.79296875,-1000.0,0
1685051976.3116174,-863.28125,-808.10546875,-110.83984375,-1000.0,0
1685051976.3164506,188.96484375,233.88671875,-145.5078125,-149.90234375,0
1685051976.3212838,-1000.0,-1000.0,-343.75,-806.15234375,0
1685051976.3261173,-803.22265625,-1000.0,-434.5703125,194.82421875,0
1685051976.3309507,562.01171875,-61.03515625,-248.53515625,-1000.0,0
1685051976.335784,-810.05859375,-820.80078125,43.45703125,-1000.0,0
1685051976.3406172,154.78515625,350.09765625,109.86328125,-137.6953125,0
1685051976.3454506,-1000.0,-927.734375,-270.99609375,-805.17578125,0
1685051976.350284,-1000.0,-1000.0,-455.56640625,296.875,0
1685051976.3551173,226.5625,-166.015625,-265.625,-969.23828125,0
1685051976.3599505,-770.99609375,-858.88671875,-102.5390625,-1000.0,0
1685051976.364784,281.25,506.34765625,-179.6875,-275.87890625,0
1685051976.3686159,-978.02734375,-789.55078125,-370.1171875,-851.07421875,0
1685051976.3724477,-1000.0,-1000.0,-388.18359375,449.21875,1
1685051976.3762794,1.46484375,-266.11328125,-294.921875,-903.80859375,0
1685051976.3801112,-790.52734375,-920.41015625,-154.296875,-1000.0,0
1685051976.383943,432.6171875,660.64453125,-125.9765625,-374.0234375,0
1685051976.387775,-892.578125,-636.71875,-246.58203125,-939.453125,0
1685051976.3916068,-1000.0,-1000.0,-311.5234375,673.33984375,0
1685051976.3954387,-198.2421875,-391.6015625,-289.55078125,-724.609375,0
1685051976.3992705,-863.76953125,980.46875,-156.73828125,-1000.0,0
1685051976.4031022,613.28125,807.6171875,47.36328125,-425.29296875,0
1685051976.406934,-772.94921875,-490.72265625,-180.17578125,997.0703125,0
1685051976.410766,-1000.0,-1000.0,-495.1171875,787.109375,0
1685051976.4145255,-214.35546875,-565.91796875,-360.83984375,-633.30078125,0
1685051976.4182851,-923.33984375,782.2265625,-137.6953125,-1000.0,0
1685051976.4220448,802.24609375,960.44921875,-144.04296875,-928.22265625,0
1685051976.4258044,-544.921875,-323.73046875,-337.890625,364.2578125,0
1685051976.429564,-1000.0,-1000.0,-424.8046875,-932.6171875,0
1685051976.4333234,-213.8671875,-756.8359375,-291.9921875,-400.390625,0
1685051976.437083,-977.5390625,526.3671875,-145.5078125,-1000.0,0
1685051976.4408426,955.56640625,-923.828125,-159.1796875,-1000.0,0
1685051976.4446023,-284.66796875,-179.6875,-156.73828125,56.640625,0
1685051976.4483619,-1000.0,-1000.0,-214.84375,-880.37109375,0
1685051976.4521215,-404.296875,-916.9921875,-386.71875,-309.08203125,0
1685051976.455881,912.59765625,250.0,-252.9296875,-1000.0,0
1685051976.4596174,-932.12890625,-848.14453125,-50.29296875,-1000.0,0
1685051976.4633534,-112.79296875,-46.38671875,-191.40625,-216.30859375,0
1685051976.4670897,-1000.0,-1000.0,-475.5859375,-862.79296875,0
1685051976.4708257,-633.30078125,-1000.0,-441.89453125,-128.90625,0
1685051976.474562,726.07421875,7.8125,-206.54296875,-1000.0,0
1685051976.4782982,-852.05078125,-817.3828125,-58.10546875,-1000.0,0
